jsa8-2 #4 1
4/26/2018 2:24 PM
Wavelength (nm)	10mm Absorbance
//WLCalib: Shift 	0.09667	
//WLCalib: 261S 	-0.15000	
//WLCalib: 362S 	-0.12000	
//WLCalib: 484S 	0.11000	
//WLCalib: 529S 	0.18000	
//WLCalib: 823S 	-0.47000	
//QSpecEnd: 
190.0	0.022
190.5	0.002
191.0	0.000
191.5	0.025
192.0	0.038
192.5	0.045
193.0	0.045
193.5	0.038
194.0	0.035
194.5	0.028
195.0	0.014
195.5	-0.005
196.0	0.010
196.5	0.013
197.0	0.013
197.5	0.011
198.0	0.008
198.5	0.001
199.0	0.003
199.5	0.000
200.0	-0.003
200.5	-0.005
201.0	-0.005
201.5	-0.005
202.0	-0.003
202.5	-0.001
203.0	0.002
203.5	0.000
204.0	0.000
204.5	0.000
205.0	0.000
205.5	0.000
206.0	0.000
206.5	0.000
207.0	-0.001
207.5	0.000
208.0	0.002
208.5	0.002
209.0	0.003
209.5	0.004
210.0	0.005
210.5	0.004
211.0	0.003
211.5	0.002
212.0	-0.001
212.5	0.001
213.0	0.000
213.5	-0.001
214.0	0.000
214.5	0.000
215.0	0.000
215.5	0.000
216.0	0.000
216.5	-0.001
217.0	0.006
217.5	0.000
218.0	-0.006
218.5	-0.011
219.0	-0.013
219.5	-0.014
220.0	-0.013
220.5	-0.010
221.0	-0.006
221.5	0.000
222.0	0.008
222.5	-0.003
223.0	-0.003
223.5	0.004
224.0	0.011
224.5	0.013
225.0	0.014
225.5	0.013
226.0	0.011
226.5	0.007
227.0	0.002
227.5	-0.007
228.0	-0.002
228.5	0.001
229.0	0.003
229.5	0.004
230.0	-0.001
230.5	-0.005
231.0	-0.008
231.5	-0.010
232.0	-0.007
232.5	-0.010
233.0	-0.010
233.5	-0.021
234.0	-0.003
234.5	0.009
235.0	0.017
235.5	0.019
236.0	0.014
236.5	0.017
237.0	0.018
237.5	0.008
238.0	0.001
238.5	-0.008
239.0	0.002
239.5	0.003
240.0	0.001
240.5	-0.005
241.0	-0.008
241.5	-0.003
242.0	-0.003
242.5	-0.002
243.0	0.000
243.5	-0.003
244.0	-0.005
244.5	-0.003
245.0	0.000
245.5	0.001
246.0	0.002
246.5	0.002
247.0	0.010
247.5	0.000
248.0	-0.009
248.5	-0.013
249.0	-0.016
249.5	-0.024
250.0	-0.029
250.5	-0.031
251.0	-0.028
251.5	-0.020
252.0	-0.008
252.5	-0.026
253.0	-0.013
253.5	0.018
254.0	0.033
254.5	0.041
255.0	0.046
255.5	0.046
256.0	0.040
256.5	0.029
257.0	0.015
257.5	-0.015
258.0	-0.006
258.5	-0.004
259.0	-0.005
259.5	-0.006
260.0	-0.006
260.5	-0.005
261.0	-0.003
261.5	-0.001
262.0	0.002
262.5	-0.005
263.0	-0.003
263.5	0.006
264.0	0.015
264.5	0.012
265.0	0.010
265.5	0.006
266.0	0.003
266.5	-0.002
267.0	-0.007
267.5	-0.014
268.0	-0.008
268.5	0.021
269.0	-0.001
269.5	-0.021
270.0	-0.028
270.5	-0.034
271.0	-0.050
271.5	-0.057
272.0	-0.062
272.5	-0.048
273.0	-0.026
273.5	0.002
274.0	-0.009
274.5	0.001
275.0	0.015
275.5	0.014
276.0	0.006
276.5	0.001
277.0	-0.005
277.5	0.000
278.0	0.000
278.5	0.000
279.0	0.000
279.5	0.000
280.0	-0.002
280.5	-0.009
281.0	0.003
281.5	0.008
282.0	0.016
282.5	0.019
283.0	0.025
283.5	0.070
284.0	0.126
284.5	0.181
285.0	0.250
285.5	0.337
286.0	0.425
286.5	0.474
287.0	0.500
287.5	0.488
288.0	0.477
288.5	0.472
289.0	0.449
289.5	0.432
290.0	0.428
290.5	0.441
291.0	0.440
291.5	0.439
292.0	0.434
292.5	0.427
293.0	0.429
293.5	0.424
294.0	0.426
294.5	0.424
295.0	0.421
295.5	0.417
296.0	0.411
296.5	0.407
297.0	0.403
297.5	0.399
298.0	0.397
298.5	0.395
299.0	0.392
299.5	0.390
300.0	0.388
300.5	0.387
301.0	0.386
301.5	0.385
302.0	0.383
302.5	0.381
303.0	0.379
303.5	0.377
304.0	0.376
304.5	0.374
305.0	0.373
305.5	0.373
306.0	0.373
306.5	0.372
307.0	0.371
307.5	0.369
308.0	0.368
308.5	0.366
309.0	0.365
309.5	0.364
310.0	0.363
310.5	0.363
311.0	0.362
311.5	0.361
312.0	0.359
312.5	0.358
313.0	0.357
313.5	0.356
314.0	0.356
314.5	0.357
315.0	0.356
315.5	0.355
316.0	0.353
316.5	0.352
317.0	0.351
317.5	0.350
318.0	0.350
318.5	0.349
319.0	0.349
319.5	0.348
320.0	0.346
320.5	0.345
321.0	0.343
321.5	0.343
322.0	0.343
322.5	0.343
323.0	0.343
323.5	0.342
324.0	0.342
324.5	0.341
325.0	0.340
325.5	0.339
326.0	0.338
326.5	0.337
327.0	0.336
327.5	0.336
328.0	0.336
328.5	0.335
329.0	0.335
329.5	0.334
330.0	0.334
330.5	0.334
331.0	0.333
331.5	0.333
332.0	0.333
332.5	0.333
333.0	0.333
333.5	0.332
334.0	0.331
334.5	0.330
335.0	0.329
335.5	0.328
336.0	0.327
336.5	0.326
337.0	0.327
337.5	0.327
338.0	0.327
338.5	0.327
339.0	0.326
339.5	0.326
340.0	0.325
340.5	0.325
341.0	0.324
341.5	0.323
342.0	0.323
342.5	0.323
343.0	0.323
343.5	0.323
344.0	0.323
344.5	0.323
345.0	0.323
345.5	0.323
346.0	0.323
346.5	0.323
347.0	0.323
347.5	0.323
348.0	0.322
348.5	0.321
349.0	0.321
349.5	0.320
350.0	0.320
350.5	0.320
351.0	0.320
351.5	0.320
352.0	0.320
352.5	0.320
353.0	0.319
353.5	0.319
354.0	0.318
354.5	0.318
355.0	0.317
355.5	0.317
356.0	0.317
356.5	0.317
357.0	0.317
357.5	0.318
358.0	0.318
358.5	0.317
359.0	0.317
359.5	0.317
360.0	0.316
360.5	0.315
361.0	0.315
361.5	0.316
362.0	0.316
362.5	0.316
363.0	0.316
363.5	0.315
364.0	0.315
364.5	0.315
365.0	0.314
365.5	0.314
366.0	0.314
366.5	0.314
367.0	0.314
367.5	0.313
368.0	0.313
368.5	0.313
369.0	0.313
369.5	0.313
370.0	0.313
370.5	0.313
371.0	0.313
371.5	0.312
372.0	0.311
372.5	0.311
373.0	0.310
373.5	0.310
374.0	0.309
374.5	0.309
375.0	0.309
375.5	0.308
376.0	0.308
376.5	0.308
377.0	0.307
377.5	0.307
378.0	0.307
378.5	0.306
379.0	0.305
379.5	0.305
380.0	0.305
380.5	0.304
381.0	0.304
381.5	0.303
382.0	0.303
382.5	0.303
383.0	0.302
383.5	0.302
384.0	0.301
384.5	0.301
385.0	0.300
385.5	0.299
386.0	0.299
386.5	0.299
387.0	0.299
387.5	0.299
388.0	0.299
388.5	0.299
389.0	0.298
389.5	0.298
390.0	0.297
390.5	0.297
391.0	0.296
391.5	0.296
392.0	0.296
392.5	0.296
393.0	0.295
393.5	0.296
394.0	0.295
394.5	0.295
395.0	0.295
395.5	0.294
396.0	0.294
396.5	0.293
397.0	0.293
397.5	0.292
398.0	0.292
398.5	0.292
399.0	0.292
399.5	0.291
400.0	0.291
400.5	0.291
401.0	0.291
401.5	0.290
402.0	0.290
402.5	0.290
403.0	0.290
403.5	0.289
404.0	0.289
404.5	0.288
405.0	0.288
405.5	0.288
406.0	0.288
406.5	0.287
407.0	0.287
407.5	0.287
408.0	0.287
408.5	0.286
409.0	0.286
409.5	0.286
410.0	0.286
410.5	0.286
411.0	0.286
411.5	0.285
412.0	0.285
412.5	0.285
413.0	0.284
413.5	0.284
414.0	0.284
414.5	0.283
415.0	0.283
415.5	0.283
416.0	0.283
416.5	0.283
417.0	0.283
417.5	0.284
418.0	0.284
418.5	0.284
419.0	0.284
419.5	0.284
420.0	0.284
420.5	0.283
421.0	0.283
421.5	0.284
422.0	0.284
422.5	0.284
423.0	0.283
423.5	0.283
424.0	0.283
424.5	0.283
425.0	0.283
425.5	0.283
426.0	0.283
426.5	0.283
427.0	0.283
427.5	0.283
428.0	0.282
428.5	0.282
429.0	0.282
429.5	0.282
430.0	0.281
430.5	0.281
431.0	0.281
431.5	0.281
432.0	0.281
432.5	0.280
433.0	0.280
433.5	0.280
434.0	0.281
434.5	0.281
435.0	0.281
435.5	0.281
436.0	0.281
436.5	0.282
437.0	0.282
437.5	0.282
438.0	0.282
438.5	0.282
439.0	0.282
439.5	0.281
440.0	0.281
440.5	0.281
441.0	0.281
441.5	0.281
442.0	0.282
442.5	0.282
443.0	0.282
443.5	0.282
444.0	0.283
444.5	0.283
445.0	0.283
445.5	0.282
446.0	0.282
446.5	0.282
447.0	0.282
447.5	0.282
448.0	0.282
448.5	0.283
449.0	0.283
449.5	0.283
450.0	0.283
450.5	0.284
451.0	0.284
451.5	0.284
452.0	0.285
452.5	0.285
453.0	0.285
453.5	0.285
454.0	0.285
454.5	0.285
455.0	0.286
455.5	0.286
456.0	0.287
456.5	0.287
457.0	0.288
457.5	0.288
458.0	0.288
458.5	0.289
459.0	0.289
459.5	0.290
460.0	0.291
460.5	0.291
461.0	0.291
461.5	0.291
462.0	0.291
462.5	0.291
463.0	0.291
463.5	0.292
464.0	0.293
464.5	0.294
465.0	0.294
465.5	0.295
466.0	0.296
466.5	0.296
467.0	0.297
467.5	0.297
468.0	0.297
468.5	0.298
469.0	0.298
469.5	0.298
470.0	0.299
470.5	0.300
471.0	0.300
471.5	0.301
472.0	0.302
472.5	0.303
473.0	0.304
473.5	0.305
474.0	0.306
474.5	0.307
475.0	0.307
475.5	0.308
476.0	0.309
476.5	0.310
477.0	0.311
477.5	0.312
478.0	0.313
478.5	0.314
479.0	0.315
479.5	0.317
480.0	0.318
480.5	0.319
481.0	0.321
481.5	0.322
482.0	0.324
482.5	0.326
483.0	0.328
483.5	0.330
484.0	0.331
484.5	0.332
485.0	0.334
485.5	0.335
486.0	0.337
486.5	0.339
487.0	0.340
487.5	0.342
488.0	0.343
488.5	0.344
489.0	0.346
489.5	0.347
490.0	0.349
490.5	0.351
491.0	0.353
491.5	0.354
492.0	0.356
492.5	0.358
493.0	0.359
493.5	0.361
494.0	0.362
494.5	0.364
495.0	0.366
495.5	0.368
496.0	0.369
496.5	0.371
497.0	0.373
497.5	0.375
498.0	0.377
498.5	0.379
499.0	0.381
499.5	0.383
500.0	0.385
500.5	0.386
501.0	0.388
501.5	0.389
502.0	0.391
502.5	0.392
503.0	0.394
503.5	0.396
504.0	0.397
504.5	0.399
505.0	0.401
505.5	0.404
506.0	0.405
506.5	0.407
507.0	0.409
507.5	0.410
508.0	0.412
508.5	0.414
509.0	0.415
509.5	0.416
510.0	0.417
510.5	0.418
511.0	0.419
511.5	0.420
512.0	0.421
512.5	0.422
513.0	0.423
513.5	0.423
514.0	0.424
514.5	0.424
515.0	0.425
515.5	0.425
516.0	0.426
516.5	0.427
517.0	0.427
517.5	0.427
518.0	0.427
518.5	0.427
519.0	0.427
519.5	0.426
520.0	0.426
520.5	0.425
521.0	0.425
521.5	0.425
522.0	0.425
522.5	0.424
523.0	0.424
523.5	0.423
524.0	0.422
524.5	0.421
525.0	0.420
525.5	0.418
526.0	0.416
526.5	0.414
527.0	0.413
527.5	0.412
528.0	0.410
528.5	0.409
529.0	0.408
529.5	0.407
530.0	0.406
530.5	0.404
531.0	0.402
531.5	0.400
532.0	0.397
532.5	0.395
533.0	0.393
533.5	0.391
534.0	0.388
534.5	0.386
535.0	0.384
535.5	0.382
536.0	0.379
536.5	0.377
537.0	0.374
537.5	0.372
538.0	0.369
538.5	0.367
539.0	0.364
539.5	0.361
540.0	0.359
540.5	0.357
541.0	0.354
541.5	0.352
542.0	0.350
542.5	0.348
543.0	0.346
543.5	0.343
544.0	0.341
544.5	0.338
545.0	0.335
545.5	0.332
546.0	0.329
546.5	0.326
547.0	0.323
547.5	0.321
548.0	0.319
548.5	0.317
549.0	0.314
549.5	0.312
550.0	0.309
550.5	0.305
551.0	0.302
551.5	0.300
552.0	0.297
552.5	0.295
553.0	0.293
553.5	0.291
554.0	0.288
554.5	0.285
555.0	0.283
555.5	0.281
556.0	0.279
556.5	0.277
557.0	0.274
557.5	0.272
558.0	0.269
558.5	0.267
559.0	0.264
559.5	0.262
560.0	0.260
560.5	0.258
561.0	0.256
561.5	0.254
562.0	0.252
562.5	0.250
563.0	0.247
563.5	0.245
564.0	0.243
564.5	0.241
565.0	0.239
565.5	0.236
566.0	0.234
566.5	0.232
567.0	0.231
567.5	0.229
568.0	0.227
568.5	0.225
569.0	0.223
569.5	0.222
570.0	0.220
570.5	0.218
571.0	0.216
571.5	0.214
572.0	0.212
572.5	0.210
573.0	0.208
573.5	0.206
574.0	0.205
574.5	0.203
575.0	0.202
575.5	0.200
576.0	0.199
576.5	0.197
577.0	0.195
577.5	0.193
578.0	0.191
578.5	0.189
579.0	0.187
579.5	0.186
580.0	0.184
580.5	0.183
581.0	0.181
581.5	0.180
582.0	0.179
582.5	0.177
583.0	0.176
583.5	0.175
584.0	0.174
584.5	0.173
585.0	0.172
585.5	0.170
586.0	0.168
586.5	0.167
587.0	0.165
587.5	0.163
588.0	0.162
588.5	0.160
589.0	0.159
589.5	0.158
590.0	0.156
590.5	0.154
591.0	0.154
591.5	0.153
592.0	0.152
592.5	0.151
593.0	0.150
593.5	0.150
594.0	0.149
594.5	0.148
595.0	0.147
595.5	0.145
596.0	0.144
596.5	0.143
597.0	0.141
597.5	0.140
598.0	0.140
598.5	0.139
599.0	0.138
599.5	0.137
600.0	0.136
600.5	0.135
601.0	0.134
601.5	0.134
602.0	0.133
602.5	0.132
603.0	0.131
603.5	0.129
604.0	0.128
604.5	0.126
605.0	0.125
605.5	0.124
606.0	0.124
606.5	0.124
607.0	0.123
607.5	0.123
608.0	0.122
608.5	0.121
609.0	0.120
609.5	0.119
610.0	0.118
610.5	0.118
611.0	0.117
611.5	0.117
612.0	0.116
612.5	0.115
613.0	0.115
613.5	0.114
614.0	0.113
614.5	0.112
615.0	0.111
615.5	0.110
616.0	0.109
616.5	0.109
617.0	0.108
617.5	0.108
618.0	0.107
618.5	0.106
619.0	0.106
619.5	0.105
620.0	0.104
620.5	0.103
621.0	0.103
621.5	0.102
622.0	0.102
622.5	0.102
623.0	0.101
623.5	0.101
624.0	0.100
624.5	0.100
625.0	0.100
625.5	0.099
626.0	0.099
626.5	0.098
627.0	0.098
627.5	0.097
628.0	0.097
628.5	0.096
629.0	0.095
629.5	0.094
630.0	0.093
630.5	0.092
631.0	0.092
631.5	0.092
632.0	0.091
632.5	0.090
633.0	0.090
633.5	0.089
634.0	0.089
634.5	0.089
635.0	0.088
635.5	0.087
636.0	0.087
636.5	0.087
637.0	0.087
637.5	0.087
638.0	0.087
638.5	0.086
639.0	0.086
639.5	0.085
640.0	0.085
640.5	0.083
641.0	0.084
641.5	0.083
642.0	0.083
642.5	0.083
643.0	0.082
643.5	0.081
644.0	0.081
644.5	0.080
645.0	0.080
645.5	0.080
646.0	0.080
646.5	0.080
647.0	0.080
647.5	0.080
648.0	0.080
648.5	0.080
649.0	0.079
649.5	0.079
650.0	0.079
650.5	0.079
651.0	0.078
651.5	0.077
652.0	0.077
652.5	0.076
653.0	0.076
653.5	0.075
654.0	0.075
654.5	0.075
655.0	0.075
655.5	0.075
656.0	0.075
656.5	0.075
657.0	0.075
657.5	0.074
658.0	0.074
658.5	0.073
659.0	0.073
659.5	0.072
660.0	0.072
660.5	0.072
661.0	0.072
661.5	0.072
662.0	0.072
662.5	0.072
663.0	0.072
663.5	0.071
664.0	0.071
664.5	0.071
665.0	0.071
665.5	0.071
666.0	0.070
666.5	0.070
667.0	0.070
667.5	0.070
668.0	0.069
668.5	0.069
669.0	0.069
669.5	0.069
670.0	0.069
670.5	0.069
671.0	0.068
671.5	0.067
672.0	0.067
672.5	0.067
673.0	0.066
673.5	0.066
674.0	0.066
674.5	0.067
675.0	0.067
675.5	0.067
676.0	0.066
676.5	0.066
677.0	0.067
677.5	0.067
678.0	0.066
678.5	0.066
679.0	0.066
679.5	0.065
680.0	0.064
680.5	0.064
681.0	0.063
681.5	0.064
682.0	0.064
682.5	0.065
683.0	0.065
683.5	0.065
684.0	0.064
684.5	0.064
685.0	0.063
685.5	0.062
686.0	0.061
686.5	0.061
687.0	0.062
687.5	0.062
688.0	0.062
688.5	0.061
689.0	0.061
689.5	0.061
690.0	0.061
690.5	0.061
691.0	0.061
691.5	0.062
692.0	0.062
692.5	0.062
693.0	0.062
693.5	0.062
694.0	0.060
694.5	0.060
695.0	0.060
695.5	0.059
696.0	0.060
696.5	0.060
697.0	0.061
697.5	0.061
698.0	0.061
698.5	0.061
699.0	0.060
699.5	0.059
700.0	0.058
700.5	0.058
701.0	0.059
701.5	0.059
702.0	0.059
702.5	0.059
703.0	0.059
703.5	0.058
704.0	0.058
704.5	0.057
705.0	0.057
705.5	0.057
706.0	0.057
706.5	0.056
707.0	0.057
707.5	0.057
708.0	0.057
708.5	0.057
709.0	0.057
709.5	0.057
710.0	0.057
710.5	0.056
711.0	0.056
711.5	0.055
712.0	0.055
712.5	0.056
713.0	0.056
713.5	0.056
714.0	0.056
714.5	0.056
715.0	0.056
715.5	0.055
716.0	0.055
716.5	0.054
717.0	0.054
717.5	0.054
718.0	0.054
718.5	0.055
719.0	0.055
719.5	0.055
720.0	0.055
720.5	0.054
721.0	0.054
721.5	0.054
722.0	0.053
722.5	0.053
723.0	0.053
723.5	0.054
724.0	0.055
724.5	0.055
725.0	0.054
725.5	0.054
726.0	0.054
726.5	0.053
727.0	0.053
727.5	0.053
728.0	0.054
728.5	0.055
729.0	0.056
729.5	0.056
730.0	0.056
730.5	0.055
731.0	0.054
731.5	0.053
732.0	0.053
732.5	0.053
733.0	0.053
733.5	0.054
734.0	0.054
734.5	0.055
735.0	0.054
735.5	0.054
736.0	0.054
736.5	0.054
737.0	0.054
737.5	0.055
738.0	0.054
738.5	0.054
739.0	0.054
739.5	0.053
740.0	0.053
740.5	0.052
741.0	0.051
741.5	0.050
742.0	0.050
742.5	0.050
743.0	0.050
743.5	0.051
744.0	0.053
744.5	0.053
745.0	0.054
745.5	0.055
746.0	0.055
746.5	0.054
747.0	0.053
747.5	0.052
748.0	0.052
748.5	0.051
749.0	0.051
749.5	0.051
750.0	0.051
750.5	0.051
751.0	0.052
751.5	0.052
752.0	0.053
752.5	0.053
753.0	0.053
753.5	0.052
754.0	0.052
754.5	0.051
755.0	0.050
755.5	0.050
756.0	0.050
756.5	0.051
757.0	0.051
757.5	0.051
758.0	0.051
758.5	0.051
759.0	0.050
759.5	0.050
760.0	0.050
760.5	0.050
761.0	0.050
761.5	0.050
762.0	0.050
762.5	0.050
763.0	0.050
763.5	0.050
764.0	0.051
764.5	0.052
765.0	0.053
765.5	0.052
766.0	0.052
766.5	0.052
767.0	0.052
767.5	0.051
768.0	0.049
768.5	0.048
769.0	0.047
769.5	0.046
770.0	0.046
770.5	0.046
771.0	0.047
771.5	0.048
772.0	0.047
772.5	0.048
773.0	0.048
773.5	0.049
774.0	0.049
774.5	0.049
775.0	0.049
775.5	0.049
776.0	0.049
776.5	0.047
777.0	0.046
777.5	0.046
778.0	0.047
778.5	0.048
779.0	0.049
779.5	0.050
780.0	0.050
780.5	0.050
781.0	0.049
781.5	0.047
782.0	0.046
782.5	0.045
783.0	0.045
783.5	0.045
784.0	0.047
784.5	0.048
785.0	0.049
785.5	0.051
786.0	0.051
786.5	0.051
787.0	0.050
787.5	0.048
788.0	0.047
788.5	0.047
789.0	0.047
789.5	0.048
790.0	0.048
790.5	0.048
791.0	0.048
791.5	0.047
792.0	0.046
792.5	0.044
793.0	0.044
793.5	0.045
794.0	0.046
794.5	0.047
795.0	0.048
795.5	0.049
796.0	0.050
796.5	0.049
797.0	0.049
797.5	0.048
798.0	0.048
798.5	0.048
799.0	0.049
799.5	0.050
800.0	0.051
800.5	0.051
801.0	0.049
801.5	0.048
802.0	0.046
802.5	0.045
803.0	0.043
803.5	0.043
804.0	0.043
804.5	0.044
805.0	0.045
805.5	0.046
806.0	0.047
806.5	0.047
807.0	0.047
807.5	0.047
808.0	0.047
808.5	0.046
809.0	0.046
809.5	0.045
810.0	0.046
810.5	0.046
811.0	0.047
811.5	0.047
812.0	0.046
812.5	0.046
813.0	0.046
813.5	0.046
814.0	0.046
814.5	0.046
815.0	0.046
815.5	0.046
816.0	0.046
816.5	0.046
817.0	0.045
817.5	0.044
818.0	0.045
818.5	0.046
819.0	0.047
819.5	0.047
820.0	0.048
820.5	0.049
821.0	0.050
821.5	0.050
822.0	0.050
822.5	0.050
823.0	0.050
823.5	0.050
824.0	0.050
824.5	0.050
825.0	0.050
825.5	0.050
826.0	0.050
826.5	0.049
827.0	0.048
827.5	0.046
828.0	0.045
828.5	0.045
829.0	0.046
829.5	0.048
830.0	0.049
830.5	0.050
831.0	0.050
831.5	0.049
832.0	0.047
832.5	0.046
833.0	0.046
833.5	0.046
834.0	0.046
834.5	0.047
835.0	0.047
835.5	0.046
836.0	0.046
836.5	0.046
837.0	0.047
837.5	0.048
838.0	0.049
838.5	0.049
839.0	0.048
839.5	0.048
840.0	0.047
840.5	0.046
841.0	0.047
841.5	0.047
842.0	0.047
842.5	0.046
843.0	0.045
843.5	0.044
844.0	0.044
844.5	0.044
845.0	0.044
845.5	0.043
846.0	0.043
846.5	0.042
847.0	0.041
847.5	0.042
848.0	0.043
848.5	0.044
849.0	0.045
849.5	0.046
850.0	0.047


jsa8-2 #5 1
4/26/2018 2:27 PM
Wavelength (nm)	10mm Absorbance
//WLCalib: Shift 	0.09667	
//WLCalib: 261S 	-0.15000	
//WLCalib: 362S 	-0.12000	
//WLCalib: 484S 	0.11000	
//WLCalib: 529S 	0.18000	
//WLCalib: 823S 	-0.47000	
//QSpecEnd: 
190.0	0.037
190.5	0.001
191.0	-0.004
191.5	0.012
192.0	0.018
192.5	0.021
193.0	0.019
193.5	0.015
194.0	0.016
194.5	0.017
195.0	0.016
195.5	-0.002
196.0	0.011
196.5	0.013
197.0	0.013
197.5	0.011
198.0	0.007
198.5	0.000
199.0	0.004
199.5	0.005
200.0	0.002
200.5	-0.003
201.0	-0.004
201.5	-0.006
202.0	-0.006
202.5	-0.006
203.0	-0.005
203.5	-0.003
204.0	-0.001
204.5	0.003
205.0	0.000
205.5	0.000
206.0	0.000
206.5	0.001
207.0	-0.005
207.5	-0.001
208.0	0.005
208.5	0.009
209.0	0.012
209.5	0.014
210.0	0.014
210.5	0.012
211.0	0.009
211.5	0.003
212.0	-0.005
212.5	0.001
213.0	0.000
213.5	-0.001
214.0	0.000
214.5	0.000
215.0	0.000
215.5	0.000
216.0	0.000
216.5	0.000
217.0	0.000
217.5	0.000
218.0	0.000
218.5	-0.001
219.0	0.000
219.5	0.001
220.0	0.001
220.5	0.001
221.0	0.001
221.5	0.001
222.0	0.006
222.5	-0.003
223.0	-0.008
223.5	-0.004
224.0	0.000
224.5	0.003
225.0	0.005
225.5	0.007
226.0	0.008
226.5	0.012
227.0	0.010
227.5	-0.008
228.0	-0.007
228.5	-0.007
229.0	-0.007
229.5	-0.007
230.0	-0.006
230.5	-0.004
231.0	-0.001
231.5	0.004
232.0	0.000
232.5	0.000
233.0	0.001
233.5	-0.011
234.0	0.003
234.5	0.014
235.0	0.022
235.5	0.027
236.0	0.024
236.5	0.026
237.0	0.025
237.5	0.019
238.0	0.008
238.5	-0.001
239.0	0.008
239.5	0.006
240.0	0.004
240.5	0.000
241.0	-0.003
241.5	0.000
242.0	0.000
242.5	0.000
243.0	0.000
243.5	-0.001
244.0	-0.003
244.5	0.002
245.0	0.007
245.5	0.010
246.0	0.012
246.5	0.012
247.0	0.011
247.5	0.009
248.0	0.005
248.5	-0.001
249.0	-0.003
249.5	0.000
250.0	0.000
250.5	0.000
251.0	0.000
251.5	0.003
252.0	0.001
252.5	-0.017
253.0	-0.013
253.5	0.008
254.0	0.025
254.5	0.036
255.0	0.043
255.5	0.045
256.0	0.041
256.5	0.042
257.0	0.015
257.5	-0.023
258.0	-0.018
258.5	-0.019
259.0	-0.021
259.5	-0.020
260.0	-0.018
260.5	-0.012
261.0	-0.004
261.5	0.008
262.0	0.000
262.5	-0.004
263.0	-0.003
263.5	0.005
264.0	0.011
264.5	0.015
265.0	0.017
265.5	0.017
266.0	0.015
266.5	0.011
267.0	0.005
267.5	-0.005
268.0	-0.002
268.5	0.000
269.0	0.000
269.5	0.000
270.0	0.000
270.5	0.000
271.0	0.000
271.5	0.001
272.0	-0.005
272.5	0.002
273.0	0.004
273.5	0.005
274.0	0.006
274.5	0.006
275.0	0.005
275.5	0.004
276.0	0.002
276.5	-0.001
277.0	-0.005
277.5	0.002
278.0	0.000
278.5	0.000
279.0	0.000
279.5	0.000
280.0	-0.002
280.5	-0.006
281.0	0.004
281.5	0.003
282.0	0.009
282.5	0.015
283.0	0.026
283.5	0.059
284.0	0.113
284.5	0.203
285.0	0.305
285.5	0.408
286.0	0.493
286.5	0.566
287.0	0.625
287.5	0.650
288.0	0.665
288.5	0.676
289.0	0.688
289.5	0.693
290.0	0.694
290.5	0.676
291.0	0.647
291.5	0.636
292.0	0.622
292.5	0.614
293.0	0.617
293.5	0.623
294.0	0.632
294.5	0.635
295.0	0.649
295.5	0.654
296.0	0.657
296.5	0.658
297.0	0.662
297.5	0.661
298.0	0.659
298.5	0.659
299.0	0.659
299.5	0.657
300.0	0.657
300.5	0.656
301.0	0.655
301.5	0.654
302.0	0.653
302.5	0.650
303.0	0.648
303.5	0.647
304.0	0.646
304.5	0.645
305.0	0.646
305.5	0.644
306.0	0.643
306.5	0.641
307.0	0.639
307.5	0.636
308.0	0.633
308.5	0.633
309.0	0.632
309.5	0.631
310.0	0.629
310.5	0.628
311.0	0.626
311.5	0.624
312.0	0.623
312.5	0.621
313.0	0.619
313.5	0.617
314.0	0.617
314.5	0.616
315.0	0.614
315.5	0.612
316.0	0.610
316.5	0.609
317.0	0.608
317.5	0.606
318.0	0.605
318.5	0.605
319.0	0.606
319.5	0.604
320.0	0.601
320.5	0.598
321.0	0.596
321.5	0.595
322.0	0.593
322.5	0.592
323.0	0.593
323.5	0.593
324.0	0.592
324.5	0.590
325.0	0.589
325.5	0.588
326.0	0.587
326.5	0.586
327.0	0.584
327.5	0.583
328.0	0.582
328.5	0.581
329.0	0.580
329.5	0.579
330.0	0.578
330.5	0.577
331.0	0.576
331.5	0.574
332.0	0.574
332.5	0.572
333.0	0.571
333.5	0.571
334.0	0.570
334.5	0.569
335.0	0.569
335.5	0.568
336.0	0.567
336.5	0.567
337.0	0.566
337.5	0.564
338.0	0.564
338.5	0.563
339.0	0.563
339.5	0.563
340.0	0.563
340.5	0.562
341.0	0.561
341.5	0.559
342.0	0.557
342.5	0.556
343.0	0.555
343.5	0.554
344.0	0.554
344.5	0.553
345.0	0.553
345.5	0.553
346.0	0.553
346.5	0.553
347.0	0.554
347.5	0.555
348.0	0.555
348.5	0.555
349.0	0.554
349.5	0.553
350.0	0.552
350.5	0.550
351.0	0.549
351.5	0.550
352.0	0.550
352.5	0.551
353.0	0.551
353.5	0.550
354.0	0.549
354.5	0.549
355.0	0.549
355.5	0.548
356.0	0.547
356.5	0.548
357.0	0.549
357.5	0.549
358.0	0.549
358.5	0.549
359.0	0.548
359.5	0.548
360.0	0.547
360.5	0.547
361.0	0.546
361.5	0.546
362.0	0.546
362.5	0.546
363.0	0.547
363.5	0.546
364.0	0.546
364.5	0.546
365.0	0.545
365.5	0.544
366.0	0.543
366.5	0.543
367.0	0.543
367.5	0.543
368.0	0.543
368.5	0.543
369.0	0.543
369.5	0.543
370.0	0.542
370.5	0.542
371.0	0.542
371.5	0.542
372.0	0.542
372.5	0.543
373.0	0.543
373.5	0.543
374.0	0.543
374.5	0.542
375.0	0.542
375.5	0.541
376.0	0.540
376.5	0.540
377.0	0.540
377.5	0.540
378.0	0.539
378.5	0.539
379.0	0.538
379.5	0.538
380.0	0.537
380.5	0.537
381.0	0.537
381.5	0.536
382.0	0.536
382.5	0.535
383.0	0.535
383.5	0.534
384.0	0.533
384.5	0.532
385.0	0.532
385.5	0.531
386.0	0.530
386.5	0.529
387.0	0.529
387.5	0.528
388.0	0.527
388.5	0.527
389.0	0.527
389.5	0.526
390.0	0.526
390.5	0.526
391.0	0.525
391.5	0.525
392.0	0.524
392.5	0.523
393.0	0.522
393.5	0.522
394.0	0.521
394.5	0.521
395.0	0.520
395.5	0.520
396.0	0.519
396.5	0.519
397.0	0.519
397.5	0.518
398.0	0.517
398.5	0.517
399.0	0.516
399.5	0.514
400.0	0.514
400.5	0.514
401.0	0.514
401.5	0.514
402.0	0.513
402.5	0.513
403.0	0.512
403.5	0.511
404.0	0.510
404.5	0.509
405.0	0.509
405.5	0.509
406.0	0.508
406.5	0.508
407.0	0.508
407.5	0.507
408.0	0.507
408.5	0.507
409.0	0.506
409.5	0.505
410.0	0.505
410.5	0.505
411.0	0.504
411.5	0.503
412.0	0.502
412.5	0.502
413.0	0.502
413.5	0.502
414.0	0.501
414.5	0.501
415.0	0.501
415.5	0.500
416.0	0.500
416.5	0.499
417.0	0.499
417.5	0.499
418.0	0.499
418.5	0.499
419.0	0.499
419.5	0.499
420.0	0.498
420.5	0.497
421.0	0.497
421.5	0.497
422.0	0.497
422.5	0.497
423.0	0.497
423.5	0.496
424.0	0.496
424.5	0.496
425.0	0.495
425.5	0.494
426.0	0.494
426.5	0.494
427.0	0.494
427.5	0.494
428.0	0.493
428.5	0.493
429.0	0.493
429.5	0.492
430.0	0.492
430.5	0.491
431.0	0.491
431.5	0.491
432.0	0.491
432.5	0.491
433.0	0.491
433.5	0.491
434.0	0.491
434.5	0.491
435.0	0.491
435.5	0.491
436.0	0.491
436.5	0.491
437.0	0.491
437.5	0.491
438.0	0.491
438.5	0.491
439.0	0.491
439.5	0.490
440.0	0.490
440.5	0.489
441.0	0.488
441.5	0.488
442.0	0.489
442.5	0.489
443.0	0.490
443.5	0.490
444.0	0.490
444.5	0.491
445.0	0.490
445.5	0.490
446.0	0.489
446.5	0.490
447.0	0.489
447.5	0.489
448.0	0.489
448.5	0.489
449.0	0.489
449.5	0.490
450.0	0.490
450.5	0.490
451.0	0.490
451.5	0.491
452.0	0.491
452.5	0.492
453.0	0.492
453.5	0.492
454.0	0.491
454.5	0.492
455.0	0.492
455.5	0.492
456.0	0.492
456.5	0.493
457.0	0.493
457.5	0.494
458.0	0.495
458.5	0.495
459.0	0.495
459.5	0.496
460.0	0.497
460.5	0.497
461.0	0.497
461.5	0.497
462.0	0.498
462.5	0.498
463.0	0.499
463.5	0.500
464.0	0.500
464.5	0.501
465.0	0.502
465.5	0.503
466.0	0.504
466.5	0.504
467.0	0.504
467.5	0.504
468.0	0.505
468.5	0.505
469.0	0.506
469.5	0.507
470.0	0.508
470.5	0.510
471.0	0.511
471.5	0.512
472.0	0.514
472.5	0.515
473.0	0.516
473.5	0.517
474.0	0.519
474.5	0.520
475.0	0.521
475.5	0.523
476.0	0.524
476.5	0.525
477.0	0.527
477.5	0.528
478.0	0.530
478.5	0.532
479.0	0.533
479.5	0.535
480.0	0.537
480.5	0.539
481.0	0.541
481.5	0.543
482.0	0.546
482.5	0.549
483.0	0.552
483.5	0.555
484.0	0.557
484.5	0.560
485.0	0.562
485.5	0.564
486.0	0.567
486.5	0.570
487.0	0.573
487.5	0.575
488.0	0.578
488.5	0.580
489.0	0.583
489.5	0.586
490.0	0.589
490.5	0.593
491.0	0.596
491.5	0.600
492.0	0.603
492.5	0.606
493.0	0.608
493.5	0.612
494.0	0.615
494.5	0.619
495.0	0.623
495.5	0.627
496.0	0.631
496.5	0.635
497.0	0.639
497.5	0.644
498.0	0.647
498.5	0.651
499.0	0.655
499.5	0.659
500.0	0.662
500.5	0.666
501.0	0.669
501.5	0.674
502.0	0.678
502.5	0.682
503.0	0.686
503.5	0.690
504.0	0.695
504.5	0.699
505.0	0.703
505.5	0.707
506.0	0.711
506.5	0.715
507.0	0.719
507.5	0.723
508.0	0.727
508.5	0.730
509.0	0.735
509.5	0.738
510.0	0.742
510.5	0.745
511.0	0.748
511.5	0.751
512.0	0.754
512.5	0.757
513.0	0.759
513.5	0.761
514.0	0.763
514.5	0.764
515.0	0.766
515.5	0.767
516.0	0.768
516.5	0.770
517.0	0.772
517.5	0.773
518.0	0.774
518.5	0.775
519.0	0.775
519.5	0.775
520.0	0.774
520.5	0.773
521.0	0.773
521.5	0.772
522.0	0.771
522.5	0.770
523.0	0.769
523.5	0.767
524.0	0.764
524.5	0.763
525.0	0.760
525.5	0.758
526.0	0.755
526.5	0.752
527.0	0.749
527.5	0.746
528.0	0.743
528.5	0.740
529.0	0.736
529.5	0.733
530.0	0.730
530.5	0.726
531.0	0.722
531.5	0.717
532.0	0.712
532.5	0.707
533.0	0.702
533.5	0.697
534.0	0.692
534.5	0.687
535.0	0.682
535.5	0.677
536.0	0.672
536.5	0.667
537.0	0.661
537.5	0.655
538.0	0.649
538.5	0.643
539.0	0.637
539.5	0.632
540.0	0.626
540.5	0.621
541.0	0.616
541.5	0.611
542.0	0.607
542.5	0.602
543.0	0.598
543.5	0.593
544.0	0.588
544.5	0.583
545.0	0.577
545.5	0.572
546.0	0.566
546.5	0.560
547.0	0.555
547.5	0.549
548.0	0.544
548.5	0.540
549.0	0.534
549.5	0.530
550.0	0.524
550.5	0.519
551.0	0.514
551.5	0.510
552.0	0.505
552.5	0.500
553.0	0.496
553.5	0.492
554.0	0.488
554.5	0.484
555.0	0.480
555.5	0.476
556.0	0.472
556.5	0.468
557.0	0.463
557.5	0.459
558.0	0.455
558.5	0.451
559.0	0.447
559.5	0.444
560.0	0.441
560.5	0.437
561.0	0.434
561.5	0.430
562.0	0.427
562.5	0.424
563.0	0.420
563.5	0.416
564.0	0.413
564.5	0.410
565.0	0.407
565.5	0.404
566.0	0.400
566.5	0.398
567.0	0.395
567.5	0.393
568.0	0.390
568.5	0.388
569.0	0.385
569.5	0.382
570.0	0.379
570.5	0.377
571.0	0.374
571.5	0.371
572.0	0.368
572.5	0.366
573.0	0.363
573.5	0.361
574.0	0.359
574.5	0.357
575.0	0.355
575.5	0.353
576.0	0.351
576.5	0.349
577.0	0.346
577.5	0.344
578.0	0.341
578.5	0.339
579.0	0.337
579.5	0.335
580.0	0.333
580.5	0.331
581.0	0.329
581.5	0.327
582.0	0.325
582.5	0.323
583.0	0.321
583.5	0.320
584.0	0.318
584.5	0.317
585.0	0.316
585.5	0.314
586.0	0.312
586.5	0.310
587.0	0.308
587.5	0.306
588.0	0.305
588.5	0.303
589.0	0.301
589.5	0.299
590.0	0.298
590.5	0.296
591.0	0.295
591.5	0.294
592.0	0.293
592.5	0.292
593.0	0.291
593.5	0.290
594.0	0.290
594.5	0.289
595.0	0.287
595.5	0.286
596.0	0.285
596.5	0.283
597.0	0.281
597.5	0.279
598.0	0.277
598.5	0.277
599.0	0.277
599.5	0.276
600.0	0.275
600.5	0.275
601.0	0.274
601.5	0.273
602.0	0.272
602.5	0.270
603.0	0.269
603.5	0.269
604.0	0.267
604.5	0.266
605.0	0.264
605.5	0.263
606.0	0.263
606.5	0.262
607.0	0.261
607.5	0.261
608.0	0.260
608.5	0.259
609.0	0.258
609.5	0.256
610.0	0.256
610.5	0.255
611.0	0.255
611.5	0.255
612.0	0.254
612.5	0.254
613.0	0.253
613.5	0.252
614.0	0.250
614.5	0.249
615.0	0.248
615.5	0.247
616.0	0.246
616.5	0.245
617.0	0.245
617.5	0.244
618.0	0.243
618.5	0.243
619.0	0.243
619.5	0.243
620.0	0.242
620.5	0.241
621.0	0.241
621.5	0.240
622.0	0.239
622.5	0.238
623.0	0.238
623.5	0.237
624.0	0.236
624.5	0.236
625.0	0.235
625.5	0.234
626.0	0.234
626.5	0.233
627.0	0.233
627.5	0.233
628.0	0.233
628.5	0.232
629.0	0.232
629.5	0.231
630.0	0.230
630.5	0.229
631.0	0.227
631.5	0.227
632.0	0.226
632.5	0.225
633.0	0.225
633.5	0.224
634.0	0.224
634.5	0.224
635.0	0.224
635.5	0.224
636.0	0.224
636.5	0.224
637.0	0.224
637.5	0.224
638.0	0.223
638.5	0.222
639.0	0.221
639.5	0.221
640.0	0.221
640.5	0.221
641.0	0.221
641.5	0.221
642.0	0.220
642.5	0.219
643.0	0.218
643.5	0.217
644.0	0.216
644.5	0.215
645.0	0.215
645.5	0.214
646.0	0.214
646.5	0.214
647.0	0.214
647.5	0.215
648.0	0.215
648.5	0.215
649.0	0.215
649.5	0.214
650.0	0.214
650.5	0.214
651.0	0.213
651.5	0.212
652.0	0.212
652.5	0.212
653.0	0.211
653.5	0.211
654.0	0.211
654.5	0.210
655.0	0.210
655.5	0.209
656.0	0.208
656.5	0.209
657.0	0.209
657.5	0.209
658.0	0.208
658.5	0.207
659.0	0.207
659.5	0.207
660.0	0.207
660.5	0.207
661.0	0.207
661.5	0.208
662.0	0.208
662.5	0.208
663.0	0.207
663.5	0.206
664.0	0.206
664.5	0.206
665.0	0.205
665.5	0.205
666.0	0.205
666.5	0.204
667.0	0.204
667.5	0.203
668.0	0.201
668.5	0.201
669.0	0.201
669.5	0.201
670.0	0.201
670.5	0.201
671.0	0.201
671.5	0.200
672.0	0.200
672.5	0.200
673.0	0.200
673.5	0.201
674.0	0.201
674.5	0.201
675.0	0.201
675.5	0.201
676.0	0.201
676.5	0.200
677.0	0.200
677.5	0.200
678.0	0.199
678.5	0.199
679.0	0.199
679.5	0.199
680.0	0.199
680.5	0.199
681.0	0.199
681.5	0.199
682.0	0.198
682.5	0.198
683.0	0.197
683.5	0.197
684.0	0.197
684.5	0.197
685.0	0.198
685.5	0.198
686.0	0.198
686.5	0.198
687.0	0.197
687.5	0.197
688.0	0.196
688.5	0.195
689.0	0.194
689.5	0.194
690.0	0.194
690.5	0.194
691.0	0.195
691.5	0.195
692.0	0.195
692.5	0.195
693.0	0.194
693.5	0.194
694.0	0.194
694.5	0.193
695.0	0.193
695.5	0.193
696.0	0.193
696.5	0.194
697.0	0.195
697.5	0.196
698.0	0.197
698.5	0.197
699.0	0.197
699.5	0.196
700.0	0.196
700.5	0.195
701.0	0.194
701.5	0.193
702.0	0.192
702.5	0.191
703.0	0.191
703.5	0.190
704.0	0.189
704.5	0.189
705.0	0.190
705.5	0.190
706.0	0.190
706.5	0.191
707.0	0.191
707.5	0.192
708.0	0.192
708.5	0.192
709.0	0.191
709.5	0.190
710.0	0.190
710.5	0.189
711.0	0.189
711.5	0.189
712.0	0.190
712.5	0.190
713.0	0.191
713.5	0.191
714.0	0.191
714.5	0.190
715.0	0.190
715.5	0.190
716.0	0.190
716.5	0.189
717.0	0.189
717.5	0.189
718.0	0.189
718.5	0.189
719.0	0.189
719.5	0.189
720.0	0.189
720.5	0.187
721.0	0.187
721.5	0.187
722.0	0.187
722.5	0.187
723.0	0.188
723.5	0.188
724.0	0.188
724.5	0.187
725.0	0.186
725.5	0.186
726.0	0.185
726.5	0.186
727.0	0.186
727.5	0.187
728.0	0.187
728.5	0.188
729.0	0.188
729.5	0.188
730.0	0.188
730.5	0.187
731.0	0.186
731.5	0.186
732.0	0.185
732.5	0.184
733.0	0.185
733.5	0.185
734.0	0.185
734.5	0.186
735.0	0.186
735.5	0.186
736.0	0.186
736.5	0.186
737.0	0.186
737.5	0.186
738.0	0.186
738.5	0.186
739.0	0.187
739.5	0.187
740.0	0.187
740.5	0.187
741.0	0.187
741.5	0.187
742.0	0.186
742.5	0.185
743.0	0.185
743.5	0.186
744.0	0.186
744.5	0.187
745.0	0.187
745.5	0.188
746.0	0.187
746.5	0.186
747.0	0.185
747.5	0.184
748.0	0.183
748.5	0.183
749.0	0.183
749.5	0.183
750.0	0.183
750.5	0.184
751.0	0.184
751.5	0.185
752.0	0.186
752.5	0.186
753.0	0.185
753.5	0.185
754.0	0.185
754.5	0.185
755.0	0.185
755.5	0.185
756.0	0.184
756.5	0.185
757.0	0.185
757.5	0.186
758.0	0.186
758.5	0.186
759.0	0.186
759.5	0.186
760.0	0.186
760.5	0.185
761.0	0.185
761.5	0.185
762.0	0.184
762.5	0.184
763.0	0.184
763.5	0.183
764.0	0.182
764.5	0.183
765.0	0.184
765.5	0.184
766.0	0.184
766.5	0.185
767.0	0.185
767.5	0.184
768.0	0.183
768.5	0.183
769.0	0.183
769.5	0.182
770.0	0.182
770.5	0.182
771.0	0.182
771.5	0.182
772.0	0.181
772.5	0.180
773.0	0.181
773.5	0.182
774.0	0.183
774.5	0.183
775.0	0.184
775.5	0.184
776.0	0.183
776.5	0.180
777.0	0.178
777.5	0.178
778.0	0.179
778.5	0.180
779.0	0.182
779.5	0.183
780.0	0.184
780.5	0.184
781.0	0.184
781.5	0.182
782.0	0.181
782.5	0.182
783.0	0.181
783.5	0.181
784.0	0.182
784.5	0.182
785.0	0.183
785.5	0.184
786.0	0.184
786.5	0.183
787.0	0.182
787.5	0.181
788.0	0.179
788.5	0.178
789.0	0.177
789.5	0.177
790.0	0.177
790.5	0.178
791.0	0.179
791.5	0.179
792.0	0.178
792.5	0.178
793.0	0.178
793.5	0.179
794.0	0.180
794.5	0.181
795.0	0.182
795.5	0.183
796.0	0.182
796.5	0.181
797.0	0.181
797.5	0.181
798.0	0.180
798.5	0.180
799.0	0.180
799.5	0.181
800.0	0.182
800.5	0.182
801.0	0.181
801.5	0.180
802.0	0.180
802.5	0.179
803.0	0.178
803.5	0.178
804.0	0.176
804.5	0.177
805.0	0.177
805.5	0.178
806.0	0.179
806.5	0.180
807.0	0.180
807.5	0.180
808.0	0.180
808.5	0.180
809.0	0.179
809.5	0.179
810.0	0.180
810.5	0.181
811.0	0.181
811.5	0.180
812.0	0.179
812.5	0.178
813.0	0.178
813.5	0.178
814.0	0.179
814.5	0.179
815.0	0.181
815.5	0.181
816.0	0.181
816.5	0.180
817.0	0.178
817.5	0.176
818.0	0.176
818.5	0.176
819.0	0.177
819.5	0.179
820.0	0.180
820.5	0.182
821.0	0.182
821.5	0.183
822.0	0.182
822.5	0.181
823.0	0.180
823.5	0.179
824.0	0.180
824.5	0.180
825.0	0.180
825.5	0.181
826.0	0.182
826.5	0.182
827.0	0.182
827.5	0.180
828.0	0.180
828.5	0.180
829.0	0.180
829.5	0.180
830.0	0.180
830.5	0.181
831.0	0.181
831.5	0.181
832.0	0.182
832.5	0.182
833.0	0.183
833.5	0.183
834.0	0.183
834.5	0.182
835.0	0.180
835.5	0.180
836.0	0.180
836.5	0.180
837.0	0.181
837.5	0.182
838.0	0.182
838.5	0.182
839.0	0.182
839.5	0.180
840.0	0.179
840.5	0.178
841.0	0.179
841.5	0.178
842.0	0.178
842.5	0.178
843.0	0.178
843.5	0.179
844.0	0.180
844.5	0.179
845.0	0.177
845.5	0.178
846.0	0.178
846.5	0.178
847.0	0.178
847.5	0.179
848.0	0.180
848.5	0.181
849.0	0.180
849.5	0.179
850.0	0.179


jsa8-3 1
4/26/2018 2:29 PM
Wavelength (nm)	10mm Absorbance
//WLCalib: Shift 	0.09667	
//WLCalib: 261S 	-0.15000	
//WLCalib: 362S 	-0.12000	
//WLCalib: 484S 	0.11000	
//WLCalib: 529S 	0.18000	
//WLCalib: 823S 	-0.47000	
//QSpecEnd: 
190.0	0.027
190.5	-0.001
191.0	-0.003
191.5	0.024
192.0	0.038
192.5	0.044
193.0	0.051
193.5	0.037
194.0	0.028
194.5	0.017
195.0	0.001
195.5	-0.018
196.0	-0.003
196.5	0.003
197.0	0.007
197.5	0.011
198.0	0.011
198.5	0.000
199.0	0.004
199.5	0.003
200.0	0.001
200.5	0.000
201.0	0.000
201.5	-0.001
202.0	0.000
202.5	0.000
203.0	0.000
203.5	0.000
204.0	0.002
204.5	-0.001
205.0	-0.003
205.5	-0.005
206.0	-0.006
206.5	-0.006
207.0	-0.011
207.5	-0.005
208.0	0.003
208.5	0.009
209.0	0.014
209.5	0.014
210.0	0.014
210.5	0.012
211.0	0.008
211.5	0.011
212.0	-0.008
212.5	-0.012
213.0	-0.019
213.5	-0.023
214.0	-0.024
214.5	-0.013
215.0	-0.016
215.5	-0.016
216.0	-0.012
216.5	-0.011
217.0	-0.018
217.5	-0.017
218.0	-0.014
218.5	-0.010
219.0	-0.001
219.5	0.008
220.0	-0.001
220.5	-0.002
221.0	-0.002
221.5	-0.003
222.0	-0.003
222.5	-0.005
223.0	-0.004
223.5	0.004
224.0	0.011
224.5	0.014
225.0	0.015
225.5	0.015
226.0	0.014
226.5	0.010
227.0	0.006
227.5	-0.005
228.0	-0.003
228.5	-0.003
229.0	-0.003
229.5	-0.003
230.0	-0.003
230.5	-0.002
231.0	-0.001
231.5	0.000
232.0	0.002
232.5	0.000
233.0	0.001
233.5	-0.011
234.0	0.003
234.5	0.014
235.0	0.021
235.5	0.032
236.0	0.024
236.5	0.022
237.0	0.016
237.5	0.008
238.0	-0.003
238.5	-0.012
239.0	-0.001
239.5	0.000
240.0	0.002
240.5	0.005
241.0	-0.003
241.5	0.000
242.0	0.000
242.5	0.000
243.0	0.000
243.5	0.001
244.0	-0.001
244.5	-0.001
245.0	0.000
245.5	0.000
246.0	0.001
246.5	0.001
247.0	0.001
247.5	0.001
248.0	0.001
248.5	0.001
249.0	-0.001
249.5	0.000
250.0	0.000
250.5	0.000
251.0	0.000
251.5	0.000
252.0	0.000
252.5	-0.015
253.0	-0.001
253.5	0.015
254.0	0.026
254.5	0.032
255.0	0.035
255.5	0.033
256.0	0.028
256.5	0.018
257.0	0.005
257.5	-0.018
258.0	0.004
258.5	0.000
259.0	0.002
259.5	0.000
260.0	-0.002
260.5	-0.003
261.0	-0.004
261.5	-0.004
262.0	-0.004
262.5	-0.008
263.0	-0.006
263.5	0.004
264.0	0.013
264.5	0.015
265.0	0.017
265.5	0.017
266.0	0.015
266.5	0.011
267.0	0.005
267.5	0.000
268.0	0.000
268.5	-0.008
269.0	-0.017
269.5	-0.022
270.0	-0.025
270.5	-0.024
271.0	-0.021
271.5	-0.014
272.0	-0.010
272.5	0.003
273.0	0.009
273.5	0.008
274.0	0.010
274.5	0.011
275.0	0.010
275.5	0.009
276.0	0.006
276.5	0.001
277.0	-0.005
277.5	0.000
278.0	0.000
278.5	0.000
279.0	0.000
279.5	0.000
280.0	-0.002
280.5	-0.010
281.0	0.009
281.5	0.007
282.0	0.006
282.5	0.031
283.0	0.040
283.5	0.054
284.0	0.062
284.5	0.082
285.0	0.104
285.5	0.126
286.0	0.156
286.5	0.150
287.0	0.160
287.5	0.172
288.0	0.161
288.5	0.151
289.0	0.139
289.5	0.143
290.0	0.146
290.5	0.145
291.0	0.145
291.5	0.143
292.0	0.146
292.5	0.147
293.0	0.149
293.5	0.149
294.0	0.148
294.5	0.147
295.0	0.146
295.5	0.142
296.0	0.141
296.5	0.139
297.0	0.139
297.5	0.139
298.0	0.138
298.5	0.138
299.0	0.138
299.5	0.138
300.0	0.138
300.5	0.137
301.0	0.137
301.5	0.137
302.0	0.137
302.5	0.137
303.0	0.137
303.5	0.136
304.0	0.136
304.5	0.136
305.0	0.136
305.5	0.135
306.0	0.135
306.5	0.135
307.0	0.134
307.5	0.134
308.0	0.133
308.5	0.133
309.0	0.133
309.5	0.133
310.0	0.133
310.5	0.133
311.0	0.132
311.5	0.132
312.0	0.132
312.5	0.132
313.0	0.132
313.5	0.132
314.0	0.132
314.5	0.133
315.0	0.133
315.5	0.132
316.0	0.131
316.5	0.132
317.0	0.131
317.5	0.131
318.0	0.131
318.5	0.131
319.0	0.131
319.5	0.132
320.0	0.131
320.5	0.131
321.0	0.130
321.5	0.130
322.0	0.130
322.5	0.130
323.0	0.130
323.5	0.130
324.0	0.129
324.5	0.129
325.0	0.128
325.5	0.128
326.0	0.128
326.5	0.127
327.0	0.127
327.5	0.127
328.0	0.127
328.5	0.127
329.0	0.126
329.5	0.126
330.0	0.126
330.5	0.126
331.0	0.125
331.5	0.125
332.0	0.126
332.5	0.126
333.0	0.126
333.5	0.126
334.0	0.126
334.5	0.125
335.0	0.125
335.5	0.125
336.0	0.125
336.5	0.125
337.0	0.125
337.5	0.124
338.0	0.124
338.5	0.124
339.0	0.124
339.5	0.124
340.0	0.124
340.5	0.124
341.0	0.124
341.5	0.124
342.0	0.123
342.5	0.123
343.0	0.124
343.5	0.123
344.0	0.124
344.5	0.124
345.0	0.123
345.5	0.123
346.0	0.123
346.5	0.123
347.0	0.123
347.5	0.124
348.0	0.124
348.5	0.124
349.0	0.124
349.5	0.124
350.0	0.123
350.5	0.123
351.0	0.123
351.5	0.122
352.0	0.122
352.5	0.122
353.0	0.122
353.5	0.123
354.0	0.122
354.5	0.122
355.0	0.122
355.5	0.122
356.0	0.121
356.5	0.122
357.0	0.122
357.5	0.123
358.0	0.123
358.5	0.123
359.0	0.123
359.5	0.123
360.0	0.122
360.5	0.122
361.0	0.122
361.5	0.122
362.0	0.123
362.5	0.123
363.0	0.123
363.5	0.123
364.0	0.124
364.5	0.123
365.0	0.123
365.5	0.123
366.0	0.123
366.5	0.123
367.0	0.123
367.5	0.122
368.0	0.122
368.5	0.122
369.0	0.123
369.5	0.123
370.0	0.124
370.5	0.124
371.0	0.124
371.5	0.124
372.0	0.124
372.5	0.124
373.0	0.124
373.5	0.125
374.0	0.125
374.5	0.125
375.0	0.125
375.5	0.125
376.0	0.125
376.5	0.125
377.0	0.125
377.5	0.125
378.0	0.125
378.5	0.125
379.0	0.125
379.5	0.125
380.0	0.125
380.5	0.125
381.0	0.124
381.5	0.124
382.0	0.124
382.5	0.124
383.0	0.124
383.5	0.124
384.0	0.123
384.5	0.123
385.0	0.123
385.5	0.123
386.0	0.123
386.5	0.123
387.0	0.123
387.5	0.123
388.0	0.123
388.5	0.123
389.0	0.123
389.5	0.123
390.0	0.123
390.5	0.123
391.0	0.123
391.5	0.123
392.0	0.123
392.5	0.123
393.0	0.122
393.5	0.122
394.0	0.122
394.5	0.122
395.0	0.122
395.5	0.121
396.0	0.121
396.5	0.121
397.0	0.121
397.5	0.121
398.0	0.120
398.5	0.121
399.0	0.121
399.5	0.120
400.0	0.120
400.5	0.120
401.0	0.120
401.5	0.120
402.0	0.120
402.5	0.120
403.0	0.120
403.5	0.120
404.0	0.119
404.5	0.119
405.0	0.119
405.5	0.119
406.0	0.119
406.5	0.119
407.0	0.119
407.5	0.119
408.0	0.119
408.5	0.119
409.0	0.119
409.5	0.119
410.0	0.119
410.5	0.118
411.0	0.118
411.5	0.118
412.0	0.118
412.5	0.118
413.0	0.118
413.5	0.117
414.0	0.118
414.5	0.117
415.0	0.117
415.5	0.117
416.0	0.117
416.5	0.117
417.0	0.117
417.5	0.117
418.0	0.117
418.5	0.117
419.0	0.118
419.5	0.118
420.0	0.118
420.5	0.118
421.0	0.117
421.5	0.117
422.0	0.117
422.5	0.117
423.0	0.117
423.5	0.117
424.0	0.117
424.5	0.117
425.0	0.117
425.5	0.117
426.0	0.117
426.5	0.117
427.0	0.117
427.5	0.117
428.0	0.116
428.5	0.116
429.0	0.116
429.5	0.116
430.0	0.116
430.5	0.116
431.0	0.116
431.5	0.115
432.0	0.115
432.5	0.115
433.0	0.115
433.5	0.115
434.0	0.115
434.5	0.115
435.0	0.115
435.5	0.115
436.0	0.115
436.5	0.115
437.0	0.115
437.5	0.115
438.0	0.115
438.5	0.115
439.0	0.115
439.5	0.115
440.0	0.114
440.5	0.114
441.0	0.113
441.5	0.113
442.0	0.113
442.5	0.114
443.0	0.114
443.5	0.114
444.0	0.114
444.5	0.114
445.0	0.114
445.5	0.114
446.0	0.113
446.5	0.113
447.0	0.113
447.5	0.113
448.0	0.112
448.5	0.112
449.0	0.112
449.5	0.112
450.0	0.112
450.5	0.112
451.0	0.112
451.5	0.113
452.0	0.113
452.5	0.113
453.0	0.112
453.5	0.112
454.0	0.112
454.5	0.112
455.0	0.112
455.5	0.112
456.0	0.112
456.5	0.112
457.0	0.112
457.5	0.112
458.0	0.112
458.5	0.112
459.0	0.111
459.5	0.111
460.0	0.112
460.5	0.112
461.0	0.112
461.5	0.112
462.0	0.113
462.5	0.112
463.0	0.112
463.5	0.111
464.0	0.111
464.5	0.111
465.0	0.111
465.5	0.112
466.0	0.112
466.5	0.111
467.0	0.111
467.5	0.111
468.0	0.111
468.5	0.110
469.0	0.110
469.5	0.110
470.0	0.110
470.5	0.110
471.0	0.110
471.5	0.111
472.0	0.111
472.5	0.111
473.0	0.111
473.5	0.112
474.0	0.112
474.5	0.112
475.0	0.112
475.5	0.112
476.0	0.112
476.5	0.112
477.0	0.112
477.5	0.112
478.0	0.112
478.5	0.112
479.0	0.112
479.5	0.112
480.0	0.112
480.5	0.113
481.0	0.113
481.5	0.113
482.0	0.113
482.5	0.113
483.0	0.113
483.5	0.113
484.0	0.114
484.5	0.114
485.0	0.114
485.5	0.115
486.0	0.116
486.5	0.116
487.0	0.116
487.5	0.116
488.0	0.116
488.5	0.116
489.0	0.116
489.5	0.117
490.0	0.117
490.5	0.118
491.0	0.118
491.5	0.118
492.0	0.118
492.5	0.118
493.0	0.118
493.5	0.119
494.0	0.119
494.5	0.119
495.0	0.120
495.5	0.120
496.0	0.120
496.5	0.120
497.0	0.120
497.5	0.120
498.0	0.120
498.5	0.121
499.0	0.121
499.5	0.121
500.0	0.122
500.5	0.122
501.0	0.123
501.5	0.123
502.0	0.123
502.5	0.123
503.0	0.123
503.5	0.123
504.0	0.123
504.5	0.123
505.0	0.124
505.5	0.124
506.0	0.124
506.5	0.125
507.0	0.125
507.5	0.126
508.0	0.126
508.5	0.126
509.0	0.126
509.5	0.127
510.0	0.127
510.5	0.127
511.0	0.127
511.5	0.128
512.0	0.128
512.5	0.129
513.0	0.128
513.5	0.128
514.0	0.128
514.5	0.128
515.0	0.127
515.5	0.127
516.0	0.127
516.5	0.127
517.0	0.128
517.5	0.128
518.0	0.129
518.5	0.129
519.0	0.129
519.5	0.129
520.0	0.130
520.5	0.130
521.0	0.130
521.5	0.130
522.0	0.131
522.5	0.131
523.0	0.131
523.5	0.131
524.0	0.131
524.5	0.131
525.0	0.131
525.5	0.130
526.0	0.130
526.5	0.130
527.0	0.130
527.5	0.130
528.0	0.130
528.5	0.130
529.0	0.130
529.5	0.130
530.0	0.131
530.5	0.131
531.0	0.131
531.5	0.131
532.0	0.130
532.5	0.130
533.0	0.130
533.5	0.130
534.0	0.130
534.5	0.130
535.0	0.130
535.5	0.130
536.0	0.130
536.5	0.129
537.0	0.129
537.5	0.129
538.0	0.129
538.5	0.128
539.0	0.128
539.5	0.128
540.0	0.128
540.5	0.128
541.0	0.127
541.5	0.127
542.0	0.127
542.5	0.127
543.0	0.127
543.5	0.127
544.0	0.127
544.5	0.127
545.0	0.127
545.5	0.126
546.0	0.126
546.5	0.125
547.0	0.125
547.5	0.125
548.0	0.125
548.5	0.124
549.0	0.124
549.5	0.124
550.0	0.124
550.5	0.124
551.0	0.124
551.5	0.123
552.0	0.123
552.5	0.123
553.0	0.123
553.5	0.123
554.0	0.122
554.5	0.122
555.0	0.122
555.5	0.122
556.0	0.123
556.5	0.122
557.0	0.122
557.5	0.122
558.0	0.121
558.5	0.121
559.0	0.121
559.5	0.120
560.0	0.120
560.5	0.121
561.0	0.121
561.5	0.121
562.0	0.121
562.5	0.121
563.0	0.120
563.5	0.120
564.0	0.120
564.5	0.119
565.0	0.119
565.5	0.119
566.0	0.118
566.5	0.118
567.0	0.118
567.5	0.119
568.0	0.119
568.5	0.119
569.0	0.119
569.5	0.119
570.0	0.119
570.5	0.119
571.0	0.118
571.5	0.118
572.0	0.118
572.5	0.117
573.0	0.117
573.5	0.117
574.0	0.117
574.5	0.117
575.0	0.117
575.5	0.117
576.0	0.117
576.5	0.116
577.0	0.116
577.5	0.116
578.0	0.117
578.5	0.116
579.0	0.116
579.5	0.117
580.0	0.117
580.5	0.116
581.0	0.116
581.5	0.116
582.0	0.116
582.5	0.116
583.0	0.116
583.5	0.116
584.0	0.116
584.5	0.116
585.0	0.116
585.5	0.115
586.0	0.114
586.5	0.114
587.0	0.113
587.5	0.113
588.0	0.112
588.5	0.112
589.0	0.113
589.5	0.113
590.0	0.114
590.5	0.114
591.0	0.114
591.5	0.114
592.0	0.114
592.5	0.114
593.0	0.114
593.5	0.114
594.0	0.115
594.5	0.115
595.0	0.114
595.5	0.114
596.0	0.114
596.5	0.114
597.0	0.113
597.5	0.113
598.0	0.113
598.5	0.113
599.0	0.114
599.5	0.114
600.0	0.114
600.5	0.114
601.0	0.114
601.5	0.114
602.0	0.114
602.5	0.113
603.0	0.113
603.5	0.113
604.0	0.113
604.5	0.113
605.0	0.113
605.5	0.113
606.0	0.113
606.5	0.114
607.0	0.114
607.5	0.114
608.0	0.114
608.5	0.113
609.0	0.112
609.5	0.111
610.0	0.111
610.5	0.111
611.0	0.112
611.5	0.112
612.0	0.113
612.5	0.113
613.0	0.114
613.5	0.113
614.0	0.113
614.5	0.113
615.0	0.113
615.5	0.112
616.0	0.112
616.5	0.111
617.0	0.111
617.5	0.111
618.0	0.112
618.5	0.112
619.0	0.112
619.5	0.112
620.0	0.113
620.5	0.112
621.0	0.111
621.5	0.111
622.0	0.110
622.5	0.110
623.0	0.110
623.5	0.110
624.0	0.110
624.5	0.110
625.0	0.110
625.5	0.110
626.0	0.110
626.5	0.111
627.0	0.111
627.5	0.112
628.0	0.112
628.5	0.112
629.0	0.112
629.5	0.112
630.0	0.111
630.5	0.110
631.0	0.109
631.5	0.109
632.0	0.109
632.5	0.109
633.0	0.109
633.5	0.109
634.0	0.109
634.5	0.109
635.0	0.109
635.5	0.109
636.0	0.110
636.5	0.111
637.0	0.111
637.5	0.111
638.0	0.111
638.5	0.111
639.0	0.111
639.5	0.110
640.0	0.110
640.5	0.110
641.0	0.111
641.5	0.111
642.0	0.111
642.5	0.110
643.0	0.110
643.5	0.109
644.0	0.109
644.5	0.109
645.0	0.109
645.5	0.109
646.0	0.110
646.5	0.110
647.0	0.110
647.5	0.110
648.0	0.110
648.5	0.110
649.0	0.110
649.5	0.110
650.0	0.110
650.5	0.110
651.0	0.110
651.5	0.110
652.0	0.111
652.5	0.111
653.0	0.111
653.5	0.110
654.0	0.110
654.5	0.110
655.0	0.109
655.5	0.109
656.0	0.108
656.5	0.109
657.0	0.109
657.5	0.109
658.0	0.109
658.5	0.109
659.0	0.109
659.5	0.109
660.0	0.109
660.5	0.109
661.0	0.109
661.5	0.109
662.0	0.110
662.5	0.111
663.0	0.111
663.5	0.110
664.0	0.110
664.5	0.110
665.0	0.110
665.5	0.110
666.0	0.109
666.5	0.108
667.0	0.108
667.5	0.109
668.0	0.109
668.5	0.110
669.0	0.110
669.5	0.109
670.0	0.109
670.5	0.109
671.0	0.109
671.5	0.108
672.0	0.109
672.5	0.109
673.0	0.109
673.5	0.109
674.0	0.109
674.5	0.109
675.0	0.109
675.5	0.110
676.0	0.110
676.5	0.111
677.0	0.111
677.5	0.111
678.0	0.110
678.5	0.110
679.0	0.110
679.5	0.110
680.0	0.110
680.5	0.111
681.0	0.111
681.5	0.111
682.0	0.111
682.5	0.110
683.0	0.110
683.5	0.110
684.0	0.110
684.5	0.110
685.0	0.110
685.5	0.110
686.0	0.110
686.5	0.109
687.0	0.110
687.5	0.110
688.0	0.109
688.5	0.108
689.0	0.107
689.5	0.107
690.0	0.108
690.5	0.108
691.0	0.108
691.5	0.108
692.0	0.109
692.5	0.109
693.0	0.109
693.5	0.108
694.0	0.108
694.5	0.107
695.0	0.108
695.5	0.109
696.0	0.109
696.5	0.109
697.0	0.110
697.5	0.110
698.0	0.111
698.5	0.110
699.0	0.110
699.5	0.109
700.0	0.109
700.5	0.110
701.0	0.110
701.5	0.109
702.0	0.109
702.5	0.108
703.0	0.108
703.5	0.108
704.0	0.108
704.5	0.108
705.0	0.108
705.5	0.108
706.0	0.109
706.5	0.109
707.0	0.109
707.5	0.109
708.0	0.109
708.5	0.109
709.0	0.108
709.5	0.108
710.0	0.108
710.5	0.108
711.0	0.108
711.5	0.107
712.0	0.108
712.5	0.108
713.0	0.109
713.5	0.109
714.0	0.110
714.5	0.110
715.0	0.110
715.5	0.109
716.0	0.108
716.5	0.107
717.0	0.107
717.5	0.107
718.0	0.107
718.5	0.107
719.0	0.108
719.5	0.108
720.0	0.108
720.5	0.107
721.0	0.106
721.5	0.106
722.0	0.106
722.5	0.106
723.0	0.106
723.5	0.106
724.0	0.106
724.5	0.106
725.0	0.106
725.5	0.106
726.0	0.106
726.5	0.107
727.0	0.107
727.5	0.108
728.0	0.109
728.5	0.109
729.0	0.109
729.5	0.109
730.0	0.108
730.5	0.108
731.0	0.107
731.5	0.106
732.0	0.106
732.5	0.106
733.0	0.107
733.5	0.108
734.0	0.108
734.5	0.109
735.0	0.108
735.5	0.108
736.0	0.107
736.5	0.107
737.0	0.107
737.5	0.108
738.0	0.109
738.5	0.110
739.0	0.111
739.5	0.111
740.0	0.111
740.5	0.110
741.0	0.109
741.5	0.108
742.0	0.108
742.5	0.107
743.0	0.107
743.5	0.109
744.0	0.109
744.5	0.109
745.0	0.109
745.5	0.109
746.0	0.109
746.5	0.109
747.0	0.108
747.5	0.108
748.0	0.107
748.5	0.107
749.0	0.107
749.5	0.106
750.0	0.106
750.5	0.106
751.0	0.106
751.5	0.106
752.0	0.107
752.5	0.107
753.0	0.106
753.5	0.106
754.0	0.106
754.5	0.107
755.0	0.106
755.5	0.106
756.0	0.106
756.5	0.106
757.0	0.106
757.5	0.106
758.0	0.107
758.5	0.107
759.0	0.107
759.5	0.108
760.0	0.109
760.5	0.110
761.0	0.110
761.5	0.109
762.0	0.108
762.5	0.107
763.0	0.106
763.5	0.105
764.0	0.104
764.5	0.105
765.0	0.106
765.5	0.106
766.0	0.107
766.5	0.107
767.0	0.108
767.5	0.107
768.0	0.107
768.5	0.107
769.0	0.107
769.5	0.107
770.0	0.107
770.5	0.106
771.0	0.107
771.5	0.107
772.0	0.106
772.5	0.106
773.0	0.107
773.5	0.108
774.0	0.109
774.5	0.110
775.0	0.110
775.5	0.111
776.0	0.111
776.5	0.109
777.0	0.107
777.5	0.105
778.0	0.105
778.5	0.105
779.0	0.106
779.5	0.107
780.0	0.108
780.5	0.110
781.0	0.109
781.5	0.108
782.0	0.107
782.5	0.107
783.0	0.107
783.5	0.106
784.0	0.107
784.5	0.109
785.0	0.109
785.5	0.110
786.0	0.109
786.5	0.107
787.0	0.107
787.5	0.106
788.0	0.104
788.5	0.104
789.0	0.105
789.5	0.106
790.0	0.106
790.5	0.106
791.0	0.107
791.5	0.106
792.0	0.106
792.5	0.106
793.0	0.106
793.5	0.107
794.0	0.108
794.5	0.109
795.0	0.109
795.5	0.109
796.0	0.108
796.5	0.108
797.0	0.107
797.5	0.106
798.0	0.106
798.5	0.106
799.0	0.106
799.5	0.107
800.0	0.106
800.5	0.107
801.0	0.107
801.5	0.109
802.0	0.109
802.5	0.109
803.0	0.108
803.5	0.107
804.0	0.106
804.5	0.105
805.0	0.105
805.5	0.106
806.0	0.107
806.5	0.108
807.0	0.109
807.5	0.109
808.0	0.109
808.5	0.107
809.0	0.106
809.5	0.106
810.0	0.107
810.5	0.108
811.0	0.110
811.5	0.110
812.0	0.110
812.5	0.110
813.0	0.109
813.5	0.110
814.0	0.110
814.5	0.110
815.0	0.110
815.5	0.110
816.0	0.110
816.5	0.108
817.0	0.107
817.5	0.105
818.0	0.105
818.5	0.105
819.0	0.106
819.5	0.107
820.0	0.108
820.5	0.109
821.0	0.110
821.5	0.110
822.0	0.110
822.5	0.109
823.0	0.109
823.5	0.109
824.0	0.110
824.5	0.110
825.0	0.110
825.5	0.110
826.0	0.109
826.5	0.108
827.0	0.107
827.5	0.105
828.0	0.105
828.5	0.106
829.0	0.107
829.5	0.108
830.0	0.110
830.5	0.111
831.0	0.111
831.5	0.110
832.0	0.110
832.5	0.110
833.0	0.110
833.5	0.110
834.0	0.111
834.5	0.111
835.0	0.111
835.5	0.110
836.0	0.109
836.5	0.110
837.0	0.110
837.5	0.111
838.0	0.111
838.5	0.112
839.0	0.111
839.5	0.110
840.0	0.108
840.5	0.106
841.0	0.106
841.5	0.106
842.0	0.106
842.5	0.105
843.0	0.105
843.5	0.106
844.0	0.107
844.5	0.107
845.0	0.107
845.5	0.109
846.0	0.110
846.5	0.111
847.0	0.111
847.5	0.111
848.0	0.110
848.5	0.109
849.0	0.108
849.5	0.107
850.0	0.108


jsa8-5 1
4/26/2018 2:32 PM
Wavelength (nm)	10mm Absorbance
//WLCalib: Shift 	0.09667	
//WLCalib: 261S 	-0.15000	
//WLCalib: 362S 	-0.12000	
//WLCalib: 484S 	0.11000	
//WLCalib: 529S 	0.18000	
//WLCalib: 823S 	-0.47000	
//QSpecEnd: 
190.0	0.028
190.5	0.000
191.0	-0.003
191.5	0.025
192.0	0.038
192.5	0.045
193.0	0.045
193.5	0.038
194.0	0.035
194.5	0.028
195.0	0.013
195.5	0.000
196.0	0.008
196.5	0.006
197.0	0.003
197.5	-0.001
198.0	-0.005
198.5	-0.011
199.0	-0.005
199.5	-0.002
200.0	0.001
200.5	0.010
201.0	-0.003
201.5	-0.012
202.0	-0.017
202.5	-0.020
203.0	-0.019
203.5	-0.018
204.0	-0.017
204.5	-0.013
205.0	-0.005
205.5	-0.003
206.0	-0.008
206.5	-0.006
207.0	-0.010
207.5	-0.003
208.0	0.008
208.5	0.009
209.0	0.012
209.5	0.014
210.0	0.014
210.5	0.012
211.0	0.009
211.5	0.003
212.0	-0.005
212.5	0.001
213.0	0.000
213.5	-0.001
214.0	0.001
214.5	0.000
215.0	-0.001
215.5	-0.002
216.0	-0.002
216.5	-0.003
217.0	-0.003
217.5	-0.002
218.0	-0.002
218.5	-0.001
219.0	0.001
219.5	0.001
220.0	0.001
220.5	0.001
221.0	0.001
221.5	0.002
222.0	0.001
222.5	-0.004
223.0	-0.005
223.5	0.001
224.0	0.007
224.5	0.012
225.0	0.013
225.5	0.013
226.0	0.011
226.5	0.008
227.0	0.002
227.5	-0.007
228.0	-0.003
228.5	-0.001
229.0	0.001
229.5	0.002
230.0	0.001
230.5	0.001
231.0	0.001
231.5	0.001
232.0	0.000
232.5	0.000
233.0	0.001
233.5	-0.011
234.0	0.003
234.5	0.014
235.0	0.022
235.5	0.027
236.0	0.024
236.5	0.026
237.0	0.026
237.5	0.019
238.0	0.007
238.5	-0.003
239.0	0.006
239.5	0.004
240.0	0.001
240.5	-0.002
241.0	-0.004
241.5	0.000
242.0	0.001
242.5	0.000
243.0	0.000
243.5	-0.001
244.0	-0.003
244.5	0.002
245.0	0.007
245.5	0.010
246.0	0.012
246.5	0.012
247.0	0.011
247.5	0.011
248.0	0.003
248.5	-0.005
249.0	-0.009
249.5	-0.007
250.0	-0.007
250.5	-0.007
251.0	-0.005
251.5	-0.003
252.0	0.001
252.5	-0.012
253.0	-0.008
253.5	0.018
254.0	0.032
254.5	0.040
255.0	0.044
255.5	0.042
256.0	0.035
256.5	0.023
257.0	0.006
257.5	-0.021
258.0	-0.006
258.5	0.002
259.0	-0.002
259.5	-0.002
260.0	-0.001
260.5	-0.001
261.0	-0.003
261.5	-0.004
262.0	-0.005
262.5	-0.009
263.0	-0.007
263.5	0.002
264.0	0.008
264.5	0.014
265.0	0.018
265.5	0.018
266.0	0.015
266.5	0.011
267.0	0.005
267.5	-0.005
268.0	-0.002
268.5	0.000
269.0	0.000
269.5	0.000
270.0	0.000
270.5	0.000
271.0	0.000
271.5	0.001
272.0	-0.005
272.5	0.000
273.0	0.005
273.5	0.008
274.0	0.010
274.5	0.011
275.0	0.010
275.5	0.009
276.0	0.006
276.5	0.001
277.0	-0.005
277.5	0.000
278.0	0.000
278.5	0.000
279.0	0.000
279.5	0.000
280.0	-0.002
280.5	-0.009
281.0	0.004
281.5	0.005
282.0	0.014
282.5	0.021
283.0	0.031
283.5	0.063
284.0	0.110
284.5	0.184
285.0	0.285
285.5	0.411
286.0	0.561
286.5	0.693
287.0	0.828
287.5	0.936
288.0	1.034
288.5	1.117
289.0	1.202
289.5	1.256
290.0	1.303
290.5	1.333
291.0	1.349
291.5	1.352
292.0	1.356
292.5	1.399
293.0	1.454
293.5	1.521
294.0	1.607
294.5	1.655
295.0	1.706
295.5	1.737
296.0	1.741
296.5	1.730
297.0	1.724
297.5	1.727
298.0	1.714
298.5	1.699
299.0	1.681
299.5	1.667
300.0	1.669
300.5	1.667
301.0	1.661
301.5	1.674
302.0	1.679
302.5	1.670
303.0	1.677
303.5	1.676
304.0	1.664
304.5	1.671
305.0	1.673
305.5	1.663
306.0	1.662
306.5	1.656
307.0	1.661
307.5	1.660
308.0	1.665
308.5	1.668
309.0	1.662
309.5	1.664
310.0	1.657
310.5	1.640
311.0	1.621
311.5	1.611
312.0	1.609
312.5	1.599
313.0	1.594
313.5	1.593
314.0	1.591
314.5	1.595
315.0	1.595
315.5	1.587
316.0	1.581
316.5	1.579
317.0	1.578
317.5	1.578
318.0	1.579
318.5	1.571
319.0	1.563
319.5	1.559
320.0	1.556
320.5	1.547
321.0	1.542
321.5	1.541
322.0	1.548
322.5	1.550
323.0	1.550
323.5	1.543
324.0	1.535
324.5	1.536
325.0	1.532
325.5	1.526
326.0	1.524
326.5	1.526
327.0	1.528
327.5	1.527
328.0	1.518
328.5	1.511
329.0	1.502
329.5	1.497
330.0	1.491
330.5	1.490
331.0	1.492
331.5	1.498
332.0	1.500
332.5	1.503
333.0	1.498
333.5	1.492
334.0	1.483
334.5	1.474
335.0	1.471
335.5	1.468
336.0	1.469
336.5	1.470
337.0	1.471
337.5	1.471
338.0	1.471
338.5	1.469
339.0	1.461
339.5	1.456
340.0	1.451
340.5	1.445
341.0	1.447
341.5	1.441
342.0	1.443
342.5	1.441
343.0	1.444
343.5	1.449
344.0	1.446
344.5	1.444
345.0	1.441
345.5	1.437
346.0	1.435
346.5	1.434
347.0	1.437
347.5	1.437
348.0	1.436
348.5	1.437
349.0	1.432
349.5	1.429
350.0	1.424
350.5	1.419
351.0	1.413
351.5	1.418
352.0	1.418
352.5	1.420
353.0	1.415
353.5	1.415
354.0	1.413
354.5	1.413
355.0	1.410
355.5	1.406
356.0	1.403
356.5	1.404
357.0	1.403
357.5	1.402
358.0	1.400
358.5	1.401
359.0	1.402
359.5	1.406
360.0	1.408
360.5	1.407
361.0	1.405
361.5	1.405
362.0	1.402
362.5	1.402
363.0	1.401
363.5	1.400
364.0	1.397
364.5	1.398
365.0	1.399
365.5	1.397
366.0	1.395
366.5	1.398
367.0	1.396
367.5	1.397
368.0	1.395
368.5	1.391
369.0	1.389
369.5	1.387
370.0	1.387
370.5	1.385
371.0	1.384
371.5	1.387
372.0	1.387
372.5	1.386
373.0	1.385
373.5	1.386
374.0	1.386
374.5	1.385
375.0	1.384
375.5	1.381
376.0	1.379
376.5	1.379
377.0	1.377
377.5	1.374
378.0	1.372
378.5	1.370
379.0	1.367
379.5	1.366
380.0	1.366
380.5	1.365
381.0	1.364
381.5	1.366
382.0	1.367
382.5	1.366
383.0	1.364
383.5	1.362
384.0	1.360
384.5	1.357
385.0	1.355
385.5	1.352
386.0	1.350
386.5	1.350
387.0	1.350
387.5	1.348
388.0	1.345
388.5	1.345
389.0	1.344
389.5	1.342
390.0	1.341
390.5	1.341
391.0	1.339
391.5	1.339
392.0	1.336
392.5	1.335
393.0	1.332
393.5	1.332
394.0	1.330
394.5	1.329
395.0	1.329
395.5	1.327
396.0	1.324
396.5	1.322
397.0	1.318
397.5	1.317
398.0	1.316
398.5	1.316
399.0	1.317
399.5	1.318
400.0	1.318
400.5	1.318
401.0	1.316
401.5	1.314
402.0	1.310
402.5	1.308
403.0	1.307
403.5	1.304
404.0	1.302
404.5	1.301
405.0	1.301
405.5	1.300
406.0	1.299
406.5	1.298
407.0	1.297
407.5	1.295
408.0	1.293
408.5	1.289
409.0	1.287
409.5	1.286
410.0	1.284
410.5	1.283
411.0	1.282
411.5	1.282
412.0	1.281
412.5	1.280
413.0	1.277
413.5	1.275
414.0	1.274
414.5	1.273
415.0	1.271
415.5	1.269
416.0	1.269
416.5	1.269
417.0	1.268
417.5	1.267
418.0	1.266
418.5	1.266
419.0	1.266
419.5	1.265
420.0	1.263
420.5	1.263
421.0	1.262
421.5	1.262
422.0	1.261
422.5	1.260
423.0	1.259
423.5	1.258
424.0	1.258
424.5	1.256
425.0	1.255
425.5	1.255
426.0	1.254
426.5	1.253
427.0	1.252
427.5	1.251
428.0	1.249
428.5	1.247
429.0	1.246
429.5	1.245
430.0	1.244
430.5	1.244
431.0	1.244
431.5	1.243
432.0	1.241
432.5	1.240
433.0	1.238
433.5	1.238
434.0	1.236
434.5	1.235
435.0	1.234
435.5	1.233
436.0	1.233
436.5	1.231
437.0	1.231
437.5	1.231
438.0	1.230
438.5	1.230
439.0	1.230
439.5	1.228
440.0	1.228
440.5	1.227
441.0	1.226
441.5	1.225
442.0	1.226
442.5	1.225
443.0	1.224
443.5	1.224
444.0	1.223
444.5	1.222
445.0	1.221
445.5	1.220
446.0	1.219
446.5	1.219
447.0	1.219
447.5	1.218
448.0	1.217
448.5	1.216
449.0	1.215
449.5	1.215
450.0	1.214
450.5	1.213
451.0	1.213
451.5	1.213
452.0	1.212
452.5	1.212
453.0	1.211
453.5	1.211
454.0	1.210
454.5	1.209
455.0	1.209
455.5	1.209
456.0	1.209
456.5	1.209
457.0	1.208
457.5	1.208
458.0	1.209
458.5	1.208
459.0	1.208
459.5	1.209
460.0	1.210
460.5	1.211
461.0	1.210
461.5	1.209
462.0	1.209
462.5	1.208
463.0	1.207
463.5	1.207
464.0	1.207
464.5	1.207
465.0	1.208
465.5	1.209
466.0	1.210
466.5	1.210
467.0	1.211
467.5	1.211
468.0	1.211
468.5	1.212
469.0	1.212
469.5	1.212
470.0	1.212
470.5	1.212
471.0	1.214
471.5	1.215
472.0	1.216
472.5	1.217
473.0	1.220
473.5	1.222
474.0	1.223
474.5	1.224
475.0	1.224
475.5	1.225
476.0	1.226
476.5	1.226
477.0	1.227
477.5	1.229
478.0	1.231
478.5	1.232
479.0	1.234
479.5	1.236
480.0	1.238
480.5	1.239
481.0	1.243
481.5	1.246
482.0	1.249
482.5	1.253
483.0	1.256
483.5	1.260
484.0	1.262
484.5	1.264
485.0	1.267
485.5	1.269
486.0	1.273
486.5	1.278
487.0	1.282
487.5	1.286
488.0	1.290
488.5	1.295
489.0	1.298
489.5	1.301
490.0	1.304
490.5	1.307
491.0	1.311
491.5	1.314
492.0	1.318
492.5	1.323
493.0	1.327
493.5	1.332
494.0	1.337
494.5	1.342
495.0	1.346
495.5	1.351
496.0	1.355
496.5	1.357
497.0	1.362
497.5	1.368
498.0	1.372
498.5	1.378
499.0	1.384
499.5	1.385
500.0	1.391
500.5	1.395
501.0	1.398
501.5	1.403
502.0	1.409
502.5	1.418
503.0	1.425
503.5	1.431
504.0	1.437
504.5	1.438
505.0	1.443
505.5	1.447
506.0	1.452
506.5	1.455
507.0	1.459
507.5	1.464
508.0	1.467
508.5	1.468
509.0	1.473
509.5	1.477
510.0	1.483
510.5	1.491
511.0	1.497
511.5	1.500
512.0	1.504
512.5	1.504
513.0	1.504
513.5	1.503
514.0	1.504
514.5	1.506
515.0	1.509
515.5	1.510
516.0	1.512
516.5	1.515
517.0	1.518
517.5	1.520
518.0	1.523
518.5	1.524
519.0	1.528
519.5	1.533
520.0	1.534
520.5	1.532
521.0	1.530
521.5	1.530
522.0	1.528
522.5	1.527
523.0	1.526
523.5	1.525
524.0	1.525
524.5	1.529
525.0	1.530
525.5	1.530
526.0	1.530
526.5	1.529
527.0	1.527
527.5	1.527
528.0	1.527
528.5	1.525
529.0	1.524
529.5	1.525
530.0	1.526
530.5	1.526
531.0	1.525
531.5	1.524
532.0	1.522
532.5	1.520
533.0	1.517
533.5	1.513
534.0	1.510
534.5	1.509
535.0	1.507
535.5	1.504
536.0	1.501
536.5	1.498
537.0	1.495
537.5	1.491
538.0	1.489
538.5	1.487
539.0	1.486
539.5	1.483
540.0	1.481
540.5	1.479
541.0	1.476
541.5	1.473
542.0	1.470
542.5	1.469
543.0	1.468
543.5	1.465
544.0	1.462
544.5	1.460
545.0	1.458
545.5	1.456
546.0	1.452
546.5	1.449
547.0	1.447
547.5	1.446
548.0	1.443
548.5	1.441
549.0	1.438
549.5	1.436
550.0	1.432
550.5	1.427
551.0	1.422
551.5	1.418
552.0	1.417
552.5	1.413
553.0	1.410
553.5	1.410
554.0	1.408
554.5	1.406
555.0	1.404
555.5	1.402
556.0	1.399
556.5	1.398
557.0	1.395
557.5	1.390
558.0	1.387
558.5	1.383
559.0	1.380
559.5	1.378
560.0	1.377
560.5	1.375
561.0	1.374
561.5	1.374
562.0	1.370
562.5	1.368
563.0	1.366
563.5	1.363
564.0	1.361
564.5	1.358
565.0	1.355
565.5	1.352
566.0	1.348
566.5	1.346
567.0	1.342
567.5	1.341
568.0	1.339
568.5	1.337
569.0	1.337
569.5	1.335
570.0	1.334
570.5	1.332
571.0	1.329
571.5	1.327
572.0	1.324
572.5	1.320
573.0	1.319
573.5	1.317
574.0	1.317
574.5	1.317
575.0	1.315
575.5	1.314
576.0	1.312
576.5	1.308
577.0	1.305
577.5	1.301
578.0	1.298
578.5	1.296
579.0	1.293
579.5	1.293
580.0	1.291
580.5	1.288
581.0	1.286
581.5	1.284
582.0	1.283
582.5	1.279
583.0	1.277
583.5	1.275
584.0	1.271
584.5	1.270
585.0	1.267
585.5	1.262
586.0	1.260
586.5	1.257
587.0	1.255
587.5	1.254
588.0	1.253
588.5	1.252
589.0	1.251
589.5	1.249
590.0	1.246
590.5	1.242
591.0	1.239
591.5	1.238
592.0	1.236
592.5	1.234
593.0	1.231
593.5	1.231
594.0	1.230
594.5	1.227
595.0	1.225
595.5	1.224
596.0	1.224
596.5	1.223
597.0	1.222
597.5	1.221
598.0	1.219
598.5	1.218
599.0	1.217
599.5	1.214
600.0	1.210
600.5	1.207
601.0	1.203
601.5	1.199
602.0	1.197
602.5	1.196
603.0	1.195
603.5	1.196
604.0	1.196
604.5	1.193
605.0	1.190
605.5	1.188
606.0	1.186
606.5	1.184
607.0	1.182
607.5	1.180
608.0	1.179
608.5	1.178
609.0	1.176
609.5	1.173
610.0	1.170
610.5	1.170
611.0	1.168
611.5	1.166
612.0	1.167
612.5	1.164
613.0	1.163
613.5	1.161
614.0	1.157
614.5	1.154
615.0	1.152
615.5	1.152
616.0	1.150
616.5	1.149
617.0	1.149
617.5	1.146
618.0	1.144
618.5	1.141
619.0	1.137
619.5	1.136
620.0	1.135
620.5	1.135
621.0	1.134
621.5	1.133
622.0	1.131
622.5	1.128
623.0	1.125
623.5	1.123
624.0	1.122
624.5	1.120
625.0	1.118
625.5	1.117
626.0	1.116
626.5	1.114
627.0	1.114
627.5	1.113
628.0	1.113
628.5	1.113
629.0	1.114
629.5	1.114
630.0	1.112
630.5	1.109
631.0	1.106
631.5	1.103
632.0	1.102
632.5	1.100
633.0	1.099
633.5	1.099
634.0	1.097
634.5	1.093
635.0	1.092
635.5	1.090
636.0	1.087
636.5	1.085
637.0	1.083
637.5	1.082
638.0	1.083
638.5	1.082
639.0	1.081
639.5	1.079
640.0	1.080
640.5	1.079
641.0	1.077
641.5	1.077
642.0	1.075
642.5	1.073
643.0	1.070
643.5	1.067
644.0	1.067
644.5	1.065
645.0	1.065
645.5	1.064
646.0	1.063
646.5	1.064
647.0	1.064
647.5	1.062
648.0	1.061
648.5	1.060
649.0	1.060
649.5	1.059
650.0	1.058
650.5	1.058
651.0	1.056
651.5	1.057
652.0	1.057
652.5	1.055
653.0	1.053
653.5	1.050
654.0	1.048
654.5	1.046
655.0	1.045
655.5	1.043
656.0	1.041
656.5	1.043
657.0	1.043
657.5	1.041
658.0	1.041
658.5	1.041
659.0	1.041
659.5	1.040
660.0	1.039
660.5	1.039
661.0	1.037
661.5	1.037
662.0	1.037
662.5	1.036
663.0	1.036
663.5	1.033
664.0	1.033
664.5	1.031
665.0	1.029
665.5	1.027
666.0	1.024
666.5	1.023
667.0	1.021
667.5	1.021
668.0	1.021
668.5	1.020
669.0	1.021
669.5	1.021
670.0	1.019
670.5	1.019
671.0	1.018
671.5	1.016
672.0	1.014
672.5	1.015
673.0	1.015
673.5	1.015
674.0	1.014
674.5	1.013
675.0	1.012
675.5	1.012
676.0	1.011
676.5	1.009
677.0	1.008
677.5	1.008
678.0	1.007
678.5	1.006
679.0	1.005
679.5	1.004
680.0	1.003
680.5	1.002
681.0	1.001
681.5	1.001
682.0	1.002
682.5	1.001
683.0	1.001
683.5	1.001
684.0	1.000
684.5	0.998
685.0	0.995
685.5	0.993
686.0	0.992
686.5	0.993
687.0	0.995
687.5	0.995
688.0	0.995
688.5	0.993
689.0	0.992
689.5	0.990
690.0	0.989
690.5	0.988
691.0	0.988
691.5	0.990
692.0	0.990
692.5	0.990
693.0	0.988
693.5	0.986
694.0	0.985
694.5	0.985
695.0	0.984
695.5	0.983
696.0	0.983
696.5	0.984
697.0	0.984
697.5	0.985
698.0	0.985
698.5	0.983
699.0	0.983
699.5	0.982
700.0	0.981
700.5	0.981
701.0	0.982
701.5	0.981
702.0	0.980
702.5	0.979
703.0	0.978
703.5	0.976
704.0	0.976
704.5	0.974
705.0	0.975
705.5	0.974
706.0	0.973
706.5	0.973
707.0	0.973
707.5	0.973
708.0	0.973
708.5	0.972
709.0	0.971
709.5	0.969
710.0	0.969
710.5	0.966
711.0	0.966
711.5	0.967
712.0	0.968
712.5	0.968
713.0	0.967
713.5	0.967
714.0	0.967
714.5	0.966
715.0	0.966
715.5	0.967
716.0	0.968
716.5	0.967
717.0	0.966
717.5	0.966
718.0	0.966
718.5	0.965
719.0	0.964
719.5	0.962
720.0	0.960
720.5	0.959
721.0	0.956
721.5	0.953
722.0	0.953
722.5	0.955
723.0	0.956
723.5	0.959
724.0	0.959
724.5	0.960
725.0	0.959
725.5	0.958
726.0	0.957
726.5	0.956
727.0	0.956
727.5	0.956
728.0	0.956
728.5	0.956
729.0	0.956
729.5	0.954
730.0	0.953
730.5	0.952
731.0	0.952
731.5	0.952
732.0	0.952
732.5	0.954
733.0	0.955
733.5	0.954
734.0	0.955
734.5	0.954
735.0	0.952
735.5	0.950
736.0	0.949
736.5	0.948
737.0	0.949
737.5	0.950
738.0	0.950
738.5	0.951
739.0	0.951
739.5	0.950
740.0	0.948
740.5	0.949
741.0	0.949
741.5	0.949
742.0	0.949
742.5	0.946
743.0	0.945
743.5	0.944
744.0	0.942
744.5	0.940
745.0	0.940
745.5	0.942
746.0	0.944
746.5	0.944
747.0	0.943
747.5	0.941
748.0	0.939
748.5	0.938
749.0	0.936
749.5	0.936
750.0	0.936
750.5	0.936
751.0	0.935
751.5	0.936
752.0	0.935
752.5	0.935
753.0	0.935
753.5	0.937
754.0	0.938
754.5	0.939
755.0	0.938
755.5	0.937
756.0	0.938
756.5	0.938
757.0	0.939
757.5	0.938
758.0	0.937
758.5	0.938
759.0	0.936
759.5	0.935
760.0	0.935
760.5	0.935
761.0	0.937
761.5	0.936
762.0	0.936
762.5	0.935
763.0	0.934
763.5	0.934
764.0	0.932
764.5	0.933
765.0	0.934
765.5	0.932
766.0	0.932
766.5	0.931
767.0	0.930
767.5	0.931
768.0	0.930
768.5	0.930
769.0	0.929
769.5	0.928
770.0	0.929
770.5	0.929
771.0	0.930
771.5	0.929
772.0	0.927
772.5	0.929
773.0	0.929
773.5	0.930
774.0	0.930
774.5	0.929
775.0	0.931
775.5	0.933
776.0	0.932
776.5	0.929
777.0	0.929
777.5	0.930
778.0	0.928
778.5	0.928
779.0	0.927
779.5	0.926
780.0	0.928
780.5	0.929
781.0	0.927
781.5	0.930
782.0	0.931
782.5	0.933
783.0	0.932
783.5	0.933
784.0	0.935
784.5	0.939
785.0	0.939
785.5	0.937
786.0	0.935
786.5	0.934
787.0	0.931
787.5	0.928
788.0	0.922
788.5	0.920
789.0	0.919
789.5	0.922
790.0	0.922
790.5	0.922
791.0	0.923
791.5	0.925
792.0	0.926
792.5	0.926
793.0	0.926
793.5	0.925
794.0	0.925
794.5	0.923
795.0	0.923
795.5	0.921
796.0	0.920
796.5	0.920
797.0	0.919
797.5	0.921
798.0	0.921
798.5	0.923
799.0	0.923
799.5	0.923
800.0	0.926
800.5	0.928
801.0	0.928
801.5	0.928
802.0	0.931
802.5	0.930
803.0	0.927
803.5	0.925
804.0	0.921
804.5	0.921
805.0	0.919
805.5	0.922
806.0	0.922
806.5	0.925
807.0	0.926
807.5	0.923
808.0	0.919
808.5	0.917
809.0	0.918
809.5	0.920
810.0	0.919
810.5	0.921
811.0	0.922
811.5	0.920
812.0	0.913
812.5	0.911
813.0	0.910
813.5	0.911
814.0	0.916
814.5	0.918
815.0	0.919
815.5	0.924
816.0	0.928
816.5	0.924
817.0	0.920
817.5	0.920
818.0	0.920
818.5	0.919
819.0	0.919
819.5	0.916
820.0	0.915
820.5	0.917
821.0	0.918
821.5	0.917
822.0	0.918
822.5	0.921
823.0	0.923
823.5	0.924
824.0	0.925
824.5	0.923
825.0	0.923
825.5	0.922
826.0	0.923
826.5	0.922
827.0	0.921
827.5	0.919
828.0	0.918
828.5	0.918
829.0	0.919
829.5	0.919
830.0	0.920
830.5	0.920
831.0	0.920
831.5	0.919
832.0	0.918
832.5	0.917
833.0	0.918
833.5	0.917
834.0	0.918
834.5	0.917
835.0	0.915
835.5	0.914
836.0	0.914
836.5	0.914
837.0	0.915
837.5	0.916
838.0	0.917
838.5	0.918
839.0	0.918
839.5	0.920
840.0	0.917
840.5	0.916
841.0	0.920
841.5	0.916
842.0	0.912
842.5	0.910
843.0	0.911
843.5	0.911
844.0	0.910
844.5	0.915
845.0	0.910
845.5	0.910
846.0	0.912
846.5	0.903
847.0	0.908
847.5	0.911
848.0	0.909
848.5	0.912
849.0	0.912
849.5	0.908
850.0	0.907


jsa8-6 1
4/26/2018 2:34 PM
Wavelength (nm)	10mm Absorbance
//WLCalib: Shift 	0.09667	
//WLCalib: 261S 	-0.15000	
//WLCalib: 362S 	-0.12000	
//WLCalib: 484S 	0.11000	
//WLCalib: 529S 	0.18000	
//WLCalib: 823S 	-0.47000	
//QSpecEnd: 
190.0	0.028
190.5	0.000
191.0	-0.003
191.5	0.025
192.0	0.038
192.5	0.045
193.0	0.045
193.5	0.038
194.0	0.035
194.5	0.028
195.0	0.014
195.5	-0.005
196.0	0.010
196.5	0.013
197.0	0.013
197.5	0.011
198.0	0.007
198.5	0.000
199.0	0.004
199.5	0.003
200.0	0.001
200.5	0.000
201.0	0.000
201.5	-0.001
202.0	0.000
202.5	0.000
203.0	0.000
203.5	0.000
204.0	0.000
204.5	0.000
205.0	0.000
205.5	0.000
206.0	0.000
206.5	0.001
207.0	-0.005
207.5	-0.001
208.0	0.005
208.5	0.009
209.0	0.012
209.5	0.014
210.0	0.014
210.5	0.012
211.0	0.009
211.5	0.003
212.0	-0.005
212.5	0.001
213.0	0.000
213.5	-0.001
214.0	0.000
214.5	0.000
215.0	0.000
215.5	0.000
216.0	0.000
216.5	0.000
217.0	0.000
217.5	0.000
218.0	0.003
218.5	0.000
219.0	-0.002
219.5	-0.004
220.0	-0.005
220.5	-0.006
221.0	-0.005
221.5	-0.004
222.0	-0.003
222.5	-0.004
223.0	0.000
223.5	0.004
224.0	0.010
224.5	0.014
225.0	0.015
225.5	0.015
226.0	0.014
226.5	0.010
227.0	0.004
227.5	-0.005
228.0	-0.001
228.5	0.000
229.0	0.000
229.5	0.008
230.0	0.001
230.5	-0.005
231.0	-0.009
231.5	-0.012
232.0	-0.013
232.5	-0.013
233.0	-0.010
233.5	-0.018
234.0	0.002
234.5	0.021
235.0	0.022
235.5	0.027
236.0	0.024
236.5	0.026
237.0	0.025
237.5	0.019
238.0	0.008
238.5	-0.001
239.0	0.008
239.5	0.006
240.0	0.004
240.5	0.000
241.0	-0.003
241.5	0.000
242.0	0.000
242.5	0.000
243.0	0.000
243.5	-0.001
244.0	-0.003
244.5	0.002
245.0	0.007
245.5	0.010
246.0	0.012
246.5	0.012
247.0	0.011
247.5	0.009
248.0	0.005
248.5	-0.001
249.0	-0.003
249.5	0.000
250.0	0.000
250.5	0.001
251.0	0.000
251.5	-0.001
252.0	-0.001
252.5	-0.016
253.0	-0.010
253.5	0.014
254.0	0.031
254.5	0.043
255.0	0.049
255.5	0.050
256.0	0.043
256.5	0.032
257.0	0.013
257.5	-0.016
258.0	-0.005
258.5	-0.001
259.0	-0.002
259.5	-0.002
260.0	-0.001
260.5	-0.001
261.0	0.000
261.5	0.001
262.0	0.000
262.5	-0.004
263.0	-0.003
263.5	0.005
264.0	0.011
264.5	0.015
265.0	0.017
265.5	0.017
266.0	0.015
266.5	0.011
267.0	0.005
267.5	-0.005
268.0	-0.002
268.5	0.000
269.0	0.000
269.5	0.000
270.0	0.000
270.5	0.000
271.0	0.000
271.5	0.001
272.0	-0.005
272.5	0.000
273.0	0.005
273.5	0.008
274.0	0.010
274.5	0.010
275.0	0.017
275.5	0.007
276.0	-0.002
276.5	-0.011
277.0	-0.020
277.5	-0.016
278.0	-0.015
278.5	-0.012
279.0	-0.007
279.5	0.000
280.0	0.004
280.5	-0.009
281.0	0.003
281.5	0.005
282.0	0.014
282.5	0.022
283.0	0.038
283.5	0.068
284.0	0.114
284.5	0.176
285.0	0.268
285.5	0.388
286.0	0.535
286.5	0.667
287.0	0.807
287.5	0.923
288.0	1.034
288.5	1.121
289.0	1.197
289.5	1.261
290.0	1.319
290.5	1.357
291.0	1.375
291.5	1.382
292.0	1.391
292.5	1.402
293.0	1.441
293.5	1.512
294.0	1.620
294.5	1.745
295.0	1.857
295.5	1.957
296.0	2.049
296.5	2.122
297.0	2.182
297.5	2.230
298.0	2.281
298.5	2.336
299.0	2.372
299.5	2.373
300.0	2.348
300.5	2.346
301.0	2.336
301.5	2.319
302.0	2.303
302.5	2.318
303.0	2.310
303.5	2.325
304.0	2.284
304.5	2.255
305.0	2.251
305.5	2.248
306.0	2.254
306.5	2.237
307.0	2.229
307.5	2.242
308.0	2.249
308.5	2.249
309.0	2.236
309.5	2.253
310.0	2.250
310.5	2.219
311.0	2.210
311.5	2.182
312.0	2.164
312.5	2.197
313.0	2.226
313.5	2.229
314.0	2.240
314.5	2.221
315.0	2.188
315.5	2.163
316.0	2.152
316.5	2.137
317.0	2.138
317.5	2.166
318.0	2.154
318.5	2.132
319.0	2.114
319.5	2.095
320.0	2.077
320.5	2.106
321.0	2.125
321.5	2.150
322.0	2.152
322.5	2.158
323.0	2.142
323.5	2.142
324.0	2.156
324.5	2.151
325.0	2.142
325.5	2.160
326.0	2.154
326.5	2.140
327.0	2.098
327.5	2.089
328.0	2.066
328.5	2.069
329.0	2.065
329.5	2.049
330.0	2.034
330.5	2.035
331.0	2.031
331.5	2.027
332.0	2.021
332.5	2.040
333.0	2.034
333.5	2.050
334.0	2.045
334.5	2.034
335.0	2.023
335.5	2.016
336.0	2.004
336.5	1.999
337.0	1.999
337.5	2.003
338.0	1.997
338.5	2.003
339.0	2.023
339.5	2.031
340.0	2.040
340.5	2.037
341.0	2.025
341.5	2.015
342.0	1.992
342.5	1.977
343.0	1.964
343.5	1.955
344.0	1.985
344.5	1.992
345.0	2.010
345.5	2.011
346.0	2.002
346.5	2.000
347.0	1.983
347.5	1.986
348.0	1.969
348.5	1.953
349.0	1.962
349.5	1.968
350.0	1.977
350.5	1.980
351.0	2.003
351.5	2.017
352.0	2.024
352.5	2.021
353.0	1.997
353.5	1.983
354.0	1.972
354.5	1.961
355.0	1.941
355.5	1.931
356.0	1.943
356.5	1.946
357.0	1.958
357.5	1.948
358.0	1.952
358.5	1.947
359.0	1.947
359.5	1.936
360.0	1.926
360.5	1.917
361.0	1.925
361.5	1.938
362.0	1.949
362.5	1.946
363.0	1.956
363.5	1.951
364.0	1.955
364.5	1.944
365.0	1.934
365.5	1.913
366.0	1.913
366.5	1.915
367.0	1.914
367.5	1.914
368.0	1.922
368.5	1.923
369.0	1.926
369.5	1.924
370.0	1.922
370.5	1.915
371.0	1.917
371.5	1.912
372.0	1.914
372.5	1.921
373.0	1.928
373.5	1.935
374.0	1.936
374.5	1.932
375.0	1.930
375.5	1.923
376.0	1.912
376.5	1.904
377.0	1.901
377.5	1.899
378.0	1.897
378.5	1.897
379.0	1.896
379.5	1.893
380.0	1.889
380.5	1.886
381.0	1.884
381.5	1.884
382.0	1.885
382.5	1.886
383.0	1.886
383.5	1.883
384.0	1.878
384.5	1.874
385.0	1.870
385.5	1.870
386.0	1.868
386.5	1.867
387.0	1.868
387.5	1.866
388.0	1.866
388.5	1.861
389.0	1.855
389.5	1.850
390.0	1.850
390.5	1.849
391.0	1.848
391.5	1.847
392.0	1.842
392.5	1.840
393.0	1.835
393.5	1.834
394.0	1.834
394.5	1.834
395.0	1.837
395.5	1.840
396.0	1.839
396.5	1.839
397.0	1.832
397.5	1.827
398.0	1.819
398.5	1.817
399.0	1.818
399.5	1.815
400.0	1.813
400.5	1.814
401.0	1.811
401.5	1.809
402.0	1.805
402.5	1.804
403.0	1.801
403.5	1.801
404.0	1.801
404.5	1.799
405.0	1.800
405.5	1.802
406.0	1.802
406.5	1.803
407.0	1.806
407.5	1.806
408.0	1.802
408.5	1.798
409.0	1.794
409.5	1.788
410.0	1.784
410.5	1.780
411.0	1.776
411.5	1.773
412.0	1.771
412.5	1.769
413.0	1.767
413.5	1.766
414.0	1.764
414.5	1.763
415.0	1.763
415.5	1.760
416.0	1.759
416.5	1.759
417.0	1.758
417.5	1.754
418.0	1.752
418.5	1.747
419.0	1.745
419.5	1.742
420.0	1.740
420.5	1.737
421.0	1.741
421.5	1.744
422.0	1.745
422.5	1.745
423.0	1.745
423.5	1.743
424.0	1.741
424.5	1.739
425.0	1.736
425.5	1.735
426.0	1.735
426.5	1.732
427.0	1.731
427.5	1.729
428.0	1.726
428.5	1.723
429.0	1.722
429.5	1.719
430.0	1.716
430.5	1.714
431.0	1.712
431.5	1.712
432.0	1.711
432.5	1.709
433.0	1.708
433.5	1.707
434.0	1.707
434.5	1.707
435.0	1.706
435.5	1.706
436.0	1.706
436.5	1.704
437.0	1.701
437.5	1.701
438.0	1.701
438.5	1.701
439.0	1.699
439.5	1.697
440.0	1.691
440.5	1.690
441.0	1.686
441.5	1.684
442.0	1.686
442.5	1.688
443.0	1.690
443.5	1.692
444.0	1.692
444.5	1.689
445.0	1.686
445.5	1.685
446.0	1.682
446.5	1.682
447.0	1.681
447.5	1.679
448.0	1.679
448.5	1.679
449.0	1.678
449.5	1.677
450.0	1.675
450.5	1.672
451.0	1.671
451.5	1.669
452.0	1.669
452.5	1.669
453.0	1.670
453.5	1.672
454.0	1.673
454.5	1.672
455.0	1.671
455.5	1.669
456.0	1.668
456.5	1.666
457.0	1.664
457.5	1.663
458.0	1.662
458.5	1.664
459.0	1.664
459.5	1.664
460.0	1.664
460.5	1.663
461.0	1.663
461.5	1.661
462.0	1.660
462.5	1.659
463.0	1.661
463.5	1.664
464.0	1.665
464.5	1.665
465.0	1.664
465.5	1.665
466.0	1.665
466.5	1.665
467.0	1.664
467.5	1.664
468.0	1.664
468.5	1.664
469.0	1.662
469.5	1.663
470.0	1.662
470.5	1.666
471.0	1.666
471.5	1.668
472.0	1.670
472.5	1.672
473.0	1.672
473.5	1.673
474.0	1.673
474.5	1.675
475.0	1.679
475.5	1.682
476.0	1.684
476.5	1.688
477.0	1.690
477.5	1.692
478.0	1.692
478.5	1.695
479.0	1.696
479.5	1.699
480.0	1.704
480.5	1.705
481.0	1.710
481.5	1.714
482.0	1.718
482.5	1.722
483.0	1.726
483.5	1.731
484.0	1.738
484.5	1.741
485.0	1.746
485.5	1.749
486.0	1.754
486.5	1.757
487.0	1.763
487.5	1.768
488.0	1.772
488.5	1.776
489.0	1.780
489.5	1.784
490.0	1.789
490.5	1.796
491.0	1.802
491.5	1.808
492.0	1.815
492.5	1.819
493.0	1.821
493.5	1.825
494.0	1.831
494.5	1.833
495.0	1.838
495.5	1.846
496.0	1.855
496.5	1.865
497.0	1.876
497.5	1.881
498.0	1.888
498.5	1.895
499.0	1.908
499.5	1.907
500.0	1.912
500.5	1.912
501.0	1.918
501.5	1.932
502.0	1.943
502.5	1.950
503.0	1.956
503.5	1.968
504.0	1.982
504.5	1.990
505.0	2.000
505.5	2.000
506.0	2.006
506.5	2.017
507.0	2.026
507.5	2.031
508.0	2.034
508.5	2.047
509.0	2.052
509.5	2.057
510.0	2.056
510.5	2.052
511.0	2.057
511.5	2.069
512.0	2.080
512.5	2.086
513.0	2.093
513.5	2.104
514.0	2.107
514.5	2.102
515.0	2.098
515.5	2.101
516.0	2.108
516.5	2.113
517.0	2.124
517.5	2.124
518.0	2.123
518.5	2.124
519.0	2.118
519.5	2.113
520.0	2.113
520.5	2.119
521.0	2.121
521.5	2.126
522.0	2.135
522.5	2.135
523.0	2.137
523.5	2.142
524.0	2.141
524.5	2.139
525.0	2.138
525.5	2.142
526.0	2.142
526.5	2.136
527.0	2.130
527.5	2.125
528.0	2.123
528.5	2.121
529.0	2.117
529.5	2.106
530.0	2.110
530.5	2.114
531.0	2.111
531.5	2.108
532.0	2.102
532.5	2.096
533.0	2.097
533.5	2.097
534.0	2.094
534.5	2.094
535.0	2.097
535.5	2.100
536.0	2.093
536.5	2.095
537.0	2.092
537.5	2.085
538.0	2.085
538.5	2.079
539.0	2.070
539.5	2.067
540.0	2.061
540.5	2.060
541.0	2.051
541.5	2.051
542.0	2.045
542.5	2.038
543.0	2.033
543.5	2.029
544.0	2.027
544.5	2.027
545.0	2.026
545.5	2.023
546.0	2.018
546.5	2.018
547.0	2.012
547.5	2.010
548.0	2.006
548.5	2.004
549.0	2.001
549.5	1.996
550.0	1.988
550.5	1.982
551.0	1.978
551.5	1.973
552.0	1.971
552.5	1.967
553.0	1.966
553.5	1.962
554.0	1.959
554.5	1.953
555.0	1.950
555.5	1.948
556.0	1.944
556.5	1.936
557.0	1.934
557.5	1.931
558.0	1.929
558.5	1.924
559.0	1.923
559.5	1.916
560.0	1.917
560.5	1.909
561.0	1.906
561.5	1.901
562.0	1.896
562.5	1.896
563.0	1.892
563.5	1.893
564.0	1.891
564.5	1.886
565.0	1.883
565.5	1.879
566.0	1.882
566.5	1.879
567.0	1.870
567.5	1.868
568.0	1.864
568.5	1.863
569.0	1.860
569.5	1.856
570.0	1.853
570.5	1.852
571.0	1.853
571.5	1.847
572.0	1.836
572.5	1.834
573.0	1.831
573.5	1.827
574.0	1.825
574.5	1.825
575.0	1.825
575.5	1.824
576.0	1.822
576.5	1.819
577.0	1.815
577.5	1.810
578.0	1.806
578.5	1.799
579.0	1.799
579.5	1.797
580.0	1.793
580.5	1.790
581.0	1.785
581.5	1.782
582.0	1.779
582.5	1.775
583.0	1.771
583.5	1.770
584.0	1.766
584.5	1.758
585.0	1.755
585.5	1.750
586.0	1.745
586.5	1.744
587.0	1.743
587.5	1.741
588.0	1.740
588.5	1.741
589.0	1.730
589.5	1.724
590.0	1.729
590.5	1.722
591.0	1.723
591.5	1.727
592.0	1.727
592.5	1.723
593.0	1.720
593.5	1.715
594.0	1.707
594.5	1.702
595.0	1.703
595.5	1.701
596.0	1.702
596.5	1.702
597.0	1.703
597.5	1.697
598.0	1.691
598.5	1.689
599.0	1.688
599.5	1.683
600.0	1.684
600.5	1.683
601.0	1.676
601.5	1.669
602.0	1.667
602.5	1.660
603.0	1.654
603.5	1.651
604.0	1.644
604.5	1.639
605.0	1.642
605.5	1.639
606.0	1.637
606.5	1.635
607.0	1.636
607.5	1.634
608.0	1.630
608.5	1.624
609.0	1.618
609.5	1.613
610.0	1.614
610.5	1.611
611.0	1.607
611.5	1.606
612.0	1.606
612.5	1.603
613.0	1.601
613.5	1.600
614.0	1.599
614.5	1.594
615.0	1.595
615.5	1.592
616.0	1.588
616.5	1.589
617.0	1.584
617.5	1.586
618.0	1.584
618.5	1.581
619.0	1.576
619.5	1.577
620.0	1.572
620.5	1.573
621.0	1.572
621.5	1.568
622.0	1.567
622.5	1.564
623.0	1.560
623.5	1.553
624.0	1.548
624.5	1.549
625.0	1.542
625.5	1.542
626.0	1.539
626.5	1.535
627.0	1.535
627.5	1.534
628.0	1.534
628.5	1.531
629.0	1.529
629.5	1.528
630.0	1.520
630.5	1.519
631.0	1.513
631.5	1.506
632.0	1.505
632.5	1.505
633.0	1.509
633.5	1.511
634.0	1.510
634.5	1.512
635.0	1.509
635.5	1.509
636.0	1.503
636.5	1.496
637.0	1.493
637.5	1.489
638.0	1.486
638.5	1.484
639.0	1.482
639.5	1.483
640.0	1.478
640.5	1.478
641.0	1.477
641.5	1.478
642.0	1.478
642.5	1.478
643.0	1.475
643.5	1.471
644.0	1.469
644.5	1.464
645.0	1.459
645.5	1.457
646.0	1.457
646.5	1.458
647.0	1.457
647.5	1.456
648.0	1.452
648.5	1.453
649.0	1.450
649.5	1.448
650.0	1.445
650.5	1.446
651.0	1.446
651.5	1.445
652.0	1.444
652.5	1.442
653.0	1.441
653.5	1.445
654.0	1.440
654.5	1.439
655.0	1.436
655.5	1.434
656.0	1.430
656.5	1.427
657.0	1.425
657.5	1.420
658.0	1.417
658.5	1.416
659.0	1.415
659.5	1.418
660.0	1.420
660.5	1.418
661.0	1.420
661.5	1.420
662.0	1.418
662.5	1.414
663.0	1.411
663.5	1.407
664.0	1.407
664.5	1.405
665.0	1.404
665.5	1.403
666.0	1.402
666.5	1.401
667.0	1.402
667.5	1.398
668.0	1.394
668.5	1.393
669.0	1.391
669.5	1.387
670.0	1.387
670.5	1.386
671.0	1.386
671.5	1.384
672.0	1.385
672.5	1.383
673.0	1.379
673.5	1.379
674.0	1.377
674.5	1.377
675.0	1.379
675.5	1.377
676.0	1.378
676.5	1.376
677.0	1.377
677.5	1.375
678.0	1.373
678.5	1.371
679.0	1.372
679.5	1.371
680.0	1.369
680.5	1.365
681.0	1.365
681.5	1.368
682.0	1.370
682.5	1.371
683.0	1.369
683.5	1.367
684.0	1.367
684.5	1.364
685.0	1.359
685.5	1.354
686.0	1.352
686.5	1.354
687.0	1.358
687.5	1.362
688.0	1.360
688.5	1.359
689.0	1.356
689.5	1.355
690.0	1.349
690.5	1.345
691.0	1.343
691.5	1.346
692.0	1.347
692.5	1.347
693.0	1.345
693.5	1.343
694.0	1.340
694.5	1.341
695.0	1.340
695.5	1.340
696.0	1.339
696.5	1.344
697.0	1.341
697.5	1.340
698.0	1.339
698.5	1.335
699.0	1.335
699.5	1.334
700.0	1.331
700.5	1.331
701.0	1.331
701.5	1.333
702.0	1.333
702.5	1.333
703.0	1.332
703.5	1.333
704.0	1.332
704.5	1.327
705.0	1.327
705.5	1.328
706.0	1.327
706.5	1.325
707.0	1.324
707.5	1.323
708.0	1.321
708.5	1.323
709.0	1.321
709.5	1.318
710.0	1.321
710.5	1.320
711.0	1.318
711.5	1.312
712.0	1.311
712.5	1.312
713.0	1.313
713.5	1.315
714.0	1.315
714.5	1.312
715.0	1.312
715.5	1.312
716.0	1.311
716.5	1.306
717.0	1.307
717.5	1.307
718.0	1.309
718.5	1.308
719.0	1.308
719.5	1.307
720.0	1.306
720.5	1.306
721.0	1.304
721.5	1.301
722.0	1.299
722.5	1.297
723.0	1.296
723.5	1.296
724.0	1.297
724.5	1.296
725.0	1.296
725.5	1.299
726.0	1.298
726.5	1.300
727.0	1.301
727.5	1.303
728.0	1.300
728.5	1.301
729.0	1.299
729.5	1.293
730.0	1.293
730.5	1.292
731.0	1.289
731.5	1.290
732.0	1.291
732.5	1.292
733.0	1.292
733.5	1.295
734.0	1.295
734.5	1.293
735.0	1.295
735.5	1.294
736.0	1.288
736.5	1.285
737.0	1.287
737.5	1.288
738.0	1.291
738.5	1.293
739.0	1.291
739.5	1.290
740.0	1.286
740.5	1.283
741.0	1.276
741.5	1.278
742.0	1.281
742.5	1.281
743.0	1.285
743.5	1.285
744.0	1.283
744.5	1.283
745.0	1.280
745.5	1.275
746.0	1.274
746.5	1.273
747.0	1.272
747.5	1.272
748.0	1.276
748.5	1.275
749.0	1.274
749.5	1.276
750.0	1.276
750.5	1.275
751.0	1.277
751.5	1.276
752.0	1.277
752.5	1.281
753.0	1.282
753.5	1.278
754.0	1.278
754.5	1.278
755.0	1.279
755.5	1.280
756.0	1.277
756.5	1.274
757.0	1.273
757.5	1.273
758.0	1.273
758.5	1.269
759.0	1.267
759.5	1.263
760.0	1.261
760.5	1.259
761.0	1.256
761.5	1.253
762.0	1.253
762.5	1.256
763.0	1.260
763.5	1.261
764.0	1.263
764.5	1.262
765.0	1.264
765.5	1.265
766.0	1.264
766.5	1.262
767.0	1.260
767.5	1.260
768.0	1.258
768.5	1.258
769.0	1.260
769.5	1.258
770.0	1.260
770.5	1.266
771.0	1.269
771.5	1.265
772.0	1.262
772.5	1.263
773.0	1.262
773.5	1.263
774.0	1.262
774.5	1.259
775.0	1.265
775.5	1.267
776.0	1.262
776.5	1.252
777.0	1.254
777.5	1.253
778.0	1.252
778.5	1.252
779.0	1.254
779.5	1.255
780.0	1.255
780.5	1.250
781.0	1.246
781.5	1.242
782.0	1.245
782.5	1.243
783.0	1.246
783.5	1.244
784.0	1.245
784.5	1.244
785.0	1.244
785.5	1.245
786.0	1.242
786.5	1.238
787.0	1.237
787.5	1.242
788.0	1.242
788.5	1.240
789.0	1.241
789.5	1.246
790.0	1.250
790.5	1.248
791.0	1.247
791.5	1.248
792.0	1.254
792.5	1.259
793.0	1.258
793.5	1.261
794.0	1.261
794.5	1.261
795.0	1.258
795.5	1.256
796.0	1.253
796.5	1.252
797.0	1.250
797.5	1.244
798.0	1.242
798.5	1.246
799.0	1.245
799.5	1.250
800.0	1.257
800.5	1.264
801.0	1.263
801.5	1.259
802.0	1.254
802.5	1.246
803.0	1.244
803.5	1.240
804.0	1.239
804.5	1.245
805.0	1.247
805.5	1.248
806.0	1.251
806.5	1.245
807.0	1.240
807.5	1.236
808.0	1.235
808.5	1.239
809.0	1.239
809.5	1.237
810.0	1.238
810.5	1.238
811.0	1.244
811.5	1.244
812.0	1.245
812.5	1.249
813.0	1.255
813.5	1.254
814.0	1.246
814.5	1.243
815.0	1.244
815.5	1.237
816.0	1.240
816.5	1.244
817.0	1.245
817.5	1.251
818.0	1.256
818.5	1.256
819.0	1.264
819.5	1.265
820.0	1.262
820.5	1.255
821.0	1.254
821.5	1.251
822.0	1.245
822.5	1.245
823.0	1.241
823.5	1.244
824.0	1.246
824.5	1.246
825.0	1.248
825.5	1.249
826.0	1.250
826.5	1.250
827.0	1.250
827.5	1.248
828.0	1.244
828.5	1.240
829.0	1.243
829.5	1.245
830.0	1.247
830.5	1.245
831.0	1.242
831.5	1.237
832.0	1.234
832.5	1.236
833.0	1.235
833.5	1.234
834.0	1.240
834.5	1.241
835.0	1.239
835.5	1.237
836.0	1.233
836.5	1.232
837.0	1.235
837.5	1.245
838.0	1.248
838.5	1.249
839.0	1.254
839.5	1.252
840.0	1.247
840.5	1.244
841.0	1.239
841.5	1.241
842.0	1.241
842.5	1.242
843.0	1.241
843.5	1.242
844.0	1.250
844.5	1.246
845.0	1.245
845.5	1.248
846.0	1.243
846.5	1.252
847.0	1.246
847.5	1.242
848.0	1.239
848.5	1.248
849.0	1.245
849.5	1.229
850.0	1.230


stir bar and mount 1
4/26/2018 2:38 PM
Wavelength (nm)	10mm Absorbance
//WLCalib: Shift 	0.09667	
//WLCalib: 261S 	-0.15000	
//WLCalib: 362S 	-0.12000	
//WLCalib: 484S 	0.11000	
//WLCalib: 529S 	0.18000	
//WLCalib: 823S 	-0.47000	
//QSpecEnd: 
190.0	0.021
190.5	-0.011
191.0	-0.015
191.5	0.010
192.0	0.022
192.5	0.030
193.0	0.033
193.5	0.032
194.0	0.036
194.5	0.023
195.0	0.010
195.5	-0.006
196.0	0.012
196.5	0.012
197.0	0.013
197.5	0.011
198.0	0.007
198.5	0.000
199.0	0.005
199.5	0.005
200.0	0.000
200.5	0.005
201.0	0.002
201.5	-0.015
202.0	-0.026
202.5	-0.038
203.0	-0.044
203.5	-0.043
204.0	-0.037
204.5	-0.029
205.0	-0.016
205.5	0.007
206.0	-0.001
206.5	0.003
207.0	-0.005
207.5	-0.001
208.0	0.013
208.5	0.012
209.0	0.005
209.5	-0.001
210.0	-0.007
210.5	-0.011
211.0	-0.014
211.5	-0.016
212.0	-0.019
212.5	-0.004
213.0	0.009
213.5	0.000
214.0	0.000
214.5	0.000
215.0	0.000
215.5	0.000
216.0	0.000
216.5	0.006
217.0	-0.004
217.5	-0.011
218.0	-0.016
218.5	-0.019
219.0	-0.019
219.5	-0.017
220.0	-0.012
220.5	-0.006
221.0	0.004
221.5	0.005
222.0	0.001
222.5	-0.003
223.0	-0.003
223.5	0.004
224.0	0.010
224.5	0.014
225.0	0.015
225.5	0.015
226.0	0.014
226.5	0.010
227.0	0.004
227.5	-0.005
228.0	-0.002
228.5	0.008
229.0	-0.001
229.5	-0.008
230.0	-0.012
230.5	-0.015
231.0	-0.016
231.5	-0.015
232.0	-0.013
232.5	-0.008
233.0	0.001
233.5	-0.005
234.0	0.003
234.5	0.014
235.0	0.035
235.5	0.034
236.0	0.009
236.5	-0.005
237.0	-0.018
237.5	-0.029
238.0	-0.039
238.5	-0.043
239.0	-0.017
239.5	-0.005
240.0	0.015
240.5	-0.006
241.0	-0.015
241.5	-0.013
242.0	-0.013
242.5	-0.011
243.0	-0.005
243.5	-0.004
244.0	-0.001
244.5	0.005
245.0	0.000
245.5	-0.003
246.0	-0.006
246.5	-0.007
247.0	-0.007
247.5	-0.006
248.0	-0.004
248.5	-0.008
249.0	-0.004
249.5	0.007
250.0	0.000
250.5	0.000
251.0	0.000
251.5	0.000
252.0	0.004
252.5	-0.014
253.0	-0.012
253.5	0.009
254.0	0.024
254.5	0.035
255.0	0.041
255.5	0.042
256.0	0.038
256.5	0.040
257.0	0.020
257.5	-0.022
258.0	-0.024
258.5	-0.031
259.0	-0.036
259.5	-0.037
260.0	-0.032
260.5	-0.027
261.0	-0.017
261.5	0.001
262.0	-0.005
262.5	-0.008
263.0	-0.009
263.5	0.001
264.0	0.009
264.5	0.016
265.0	0.019
265.5	0.017
266.0	0.015
266.5	0.015
267.0	0.006
267.5	-0.005
268.0	0.001
268.5	-0.014
269.0	-0.028
269.5	-0.037
270.0	-0.041
270.5	-0.040
271.0	-0.033
271.5	-0.020
272.0	-0.018
272.5	0.006
273.0	0.019
273.5	0.002
274.0	-0.004
274.5	-0.009
275.0	-0.011
275.5	-0.012
276.0	-0.018
276.5	-0.021
277.0	-0.022
277.5	-0.006
278.0	-0.008
278.5	-0.010
279.0	-0.005
279.5	-0.005
280.0	-0.005
280.5	-0.016
281.0	0.009
281.5	-0.005
282.0	-0.009
282.5	0.002
283.0	0.023
283.5	0.037
284.0	0.075
284.5	0.112
285.0	0.143
285.5	0.185
286.0	0.244
286.5	0.244
287.0	0.262
287.5	0.276
288.0	0.285
288.5	0.274
289.0	0.290
289.5	0.292
290.0	0.297
290.5	0.307
291.0	0.314
291.5	0.314
292.0	0.313
292.5	0.314
293.0	0.309
293.5	0.303
294.0	0.302
294.5	0.303
295.0	0.307
295.5	0.306
296.0	0.308
296.5	0.309
297.0	0.311
297.5	0.311
298.0	0.311
298.5	0.311
299.0	0.310
299.5	0.311
300.0	0.310
300.5	0.310
301.0	0.309
301.5	0.308
302.0	0.306
302.5	0.306
303.0	0.305
303.5	0.304
304.0	0.303
304.5	0.303
305.0	0.302
305.5	0.302
306.0	0.301
306.5	0.300
307.0	0.298
307.5	0.298
308.0	0.297
308.5	0.296
309.0	0.296
309.5	0.296
310.0	0.296
310.5	0.296
311.0	0.295
311.5	0.295
312.0	0.294
312.5	0.293
313.0	0.292
313.5	0.292
314.0	0.292
314.5	0.292
315.0	0.292
315.5	0.291
316.0	0.290
316.5	0.290
317.0	0.289
317.5	0.288
318.0	0.288
318.5	0.288
319.0	0.287
319.5	0.287
320.0	0.285
320.5	0.284
321.0	0.282
321.5	0.281
322.0	0.281
322.5	0.281
323.0	0.281
323.5	0.282
324.0	0.281
324.5	0.282
325.0	0.281
325.5	0.280
326.0	0.279
326.5	0.278
327.0	0.278
327.5	0.277
328.0	0.277
328.5	0.277
329.0	0.277
329.5	0.276
330.0	0.276
330.5	0.275
331.0	0.274
331.5	0.274
332.0	0.274
332.5	0.274
333.0	0.274
333.5	0.274
334.0	0.274
334.5	0.273
335.0	0.273
335.5	0.273
336.0	0.272
336.5	0.272
337.0	0.272
337.5	0.271
338.0	0.271
338.5	0.271
339.0	0.270
339.5	0.269
340.0	0.269
340.5	0.268
341.0	0.268
341.5	0.269
342.0	0.269
342.5	0.269
343.0	0.269
343.5	0.269
344.0	0.268
344.5	0.267
345.0	0.267
345.5	0.267
346.0	0.267
346.5	0.267
347.0	0.267
347.5	0.267
348.0	0.267
348.5	0.266
349.0	0.265
349.5	0.264
350.0	0.263
350.5	0.263
351.0	0.263
351.5	0.263
352.0	0.263
352.5	0.263
353.0	0.263
353.5	0.262
354.0	0.261
354.5	0.261
355.0	0.261
355.5	0.260
356.0	0.260
356.5	0.260
357.0	0.261
357.5	0.261
358.0	0.261
358.5	0.261
359.0	0.261
359.5	0.260
360.0	0.259
360.5	0.258
361.0	0.258
361.5	0.258
362.0	0.258
362.5	0.258
363.0	0.258
363.5	0.258
364.0	0.258
364.5	0.257
365.0	0.257
365.5	0.257
366.0	0.256
366.5	0.256
367.0	0.256
367.5	0.256
368.0	0.256
368.5	0.255
369.0	0.255
369.5	0.255
370.0	0.254
370.5	0.254
371.0	0.254
371.5	0.253
372.0	0.253
372.5	0.253
373.0	0.253
373.5	0.253
374.0	0.252
374.5	0.252
375.0	0.252
375.5	0.251
376.0	0.251
376.5	0.251
377.0	0.250
377.5	0.250
378.0	0.250
378.5	0.250
379.0	0.250
379.5	0.249
380.0	0.249
380.5	0.249
381.0	0.249
381.5	0.248
382.0	0.248
382.5	0.247
383.0	0.247
383.5	0.246
384.0	0.246
384.5	0.246
385.0	0.246
385.5	0.246
386.0	0.245
386.5	0.245
387.0	0.245
387.5	0.244
388.0	0.244
388.5	0.243
389.0	0.243
389.5	0.243
390.0	0.243
390.5	0.242
391.0	0.242
391.5	0.242
392.0	0.243
392.5	0.242
393.0	0.242
393.5	0.242
394.0	0.242
394.5	0.241
395.0	0.241
395.5	0.240
396.0	0.240
396.5	0.240
397.0	0.239
397.5	0.239
398.0	0.238
398.5	0.238
399.0	0.238
399.5	0.238
400.0	0.237
400.5	0.237
401.0	0.237
401.5	0.237
402.0	0.237
402.5	0.236
403.0	0.236
403.5	0.235
404.0	0.235
404.5	0.235
405.0	0.235
405.5	0.235
406.0	0.234
406.5	0.234
407.0	0.235
407.5	0.235
408.0	0.235
408.5	0.234
409.0	0.234
409.5	0.234
410.0	0.234
410.5	0.233
411.0	0.233
411.5	0.232
412.0	0.232
412.5	0.232
413.0	0.231
413.5	0.231
414.0	0.230
414.5	0.230
415.0	0.230
415.5	0.230
416.0	0.230
416.5	0.230
417.0	0.230
417.5	0.230
418.0	0.230
418.5	0.230
419.0	0.230
419.5	0.230
420.0	0.230
420.5	0.230
421.0	0.230
421.5	0.230
422.0	0.230
422.5	0.230
423.0	0.230
423.5	0.230
424.0	0.230
424.5	0.230
425.0	0.229
425.5	0.229
426.0	0.229
426.5	0.229
427.0	0.229
427.5	0.229
428.0	0.228
428.5	0.228
429.0	0.227
429.5	0.227
430.0	0.226
430.5	0.226
431.0	0.226
431.5	0.226
432.0	0.226
432.5	0.226
433.0	0.227
433.5	0.227
434.0	0.227
434.5	0.226
435.0	0.226
435.5	0.226
436.0	0.226
436.5	0.226
437.0	0.226
437.5	0.226
438.0	0.226
438.5	0.226
439.0	0.226
439.5	0.226
440.0	0.225
440.5	0.225
441.0	0.224
441.5	0.224
442.0	0.225
442.5	0.225
443.0	0.225
443.5	0.226
444.0	0.226
444.5	0.226
445.0	0.226
445.5	0.225
446.0	0.224
446.5	0.224
447.0	0.224
447.5	0.223
448.0	0.223
448.5	0.223
449.0	0.223
449.5	0.224
450.0	0.224
450.5	0.224
451.0	0.224
451.5	0.224
452.0	0.225
452.5	0.225
453.0	0.225
453.5	0.225
454.0	0.224
454.5	0.224
455.0	0.224
455.5	0.224
456.0	0.224
456.5	0.224
457.0	0.224
457.5	0.224
458.0	0.224
458.5	0.224
459.0	0.225
459.5	0.225
460.0	0.225
460.5	0.225
461.0	0.225
461.5	0.225
462.0	0.226
462.5	0.226
463.0	0.226
463.5	0.226
464.0	0.226
464.5	0.226
465.0	0.226
465.5	0.227
466.0	0.227
466.5	0.227
467.0	0.227
467.5	0.227
468.0	0.227
468.5	0.227
469.0	0.226
469.5	0.227
470.0	0.227
470.5	0.227
471.0	0.228
471.5	0.228
472.0	0.228
472.5	0.229
473.0	0.229
473.5	0.229
474.0	0.230
474.5	0.230
475.0	0.230
475.5	0.230
476.0	0.231
476.5	0.231
477.0	0.231
477.5	0.231
478.0	0.231
478.5	0.232
479.0	0.232
479.5	0.232
480.0	0.233
480.5	0.233
481.0	0.234
481.5	0.234
482.0	0.235
482.5	0.235
483.0	0.236
483.5	0.237
484.0	0.238
484.5	0.239
485.0	0.240
485.5	0.241
486.0	0.242
486.5	0.243
487.0	0.243
487.5	0.243
488.0	0.244
488.5	0.244
489.0	0.245
489.5	0.245
490.0	0.246
490.5	0.247
491.0	0.248
491.5	0.248
492.0	0.248
492.5	0.248
493.0	0.249
493.5	0.250
494.0	0.250
494.5	0.251
495.0	0.252
495.5	0.253
496.0	0.254
496.5	0.254
497.0	0.255
497.5	0.255
498.0	0.255
498.5	0.256
499.0	0.257
499.5	0.257
500.0	0.259
500.5	0.260
501.0	0.260
501.5	0.261
502.0	0.261
502.5	0.261
503.0	0.261
503.5	0.261
504.0	0.262
504.5	0.262
505.0	0.263
505.5	0.264
506.0	0.264
506.5	0.265
507.0	0.266
507.5	0.267
508.0	0.268
508.5	0.268
509.0	0.269
509.5	0.269
510.0	0.269
510.5	0.270
511.0	0.270
511.5	0.271
512.0	0.271
512.5	0.272
513.0	0.272
513.5	0.273
514.0	0.273
514.5	0.273
515.0	0.272
515.5	0.273
516.0	0.273
516.5	0.273
517.0	0.274
517.5	0.274
518.0	0.274
518.5	0.274
519.0	0.274
519.5	0.273
520.0	0.273
520.5	0.273
521.0	0.273
521.5	0.274
522.0	0.275
522.5	0.275
523.0	0.275
523.5	0.274
524.0	0.273
524.5	0.273
525.0	0.272
525.5	0.272
526.0	0.271
526.5	0.271
527.0	0.271
527.5	0.271
528.0	0.271
528.5	0.270
529.0	0.270
529.5	0.270
530.0	0.270
530.5	0.270
531.0	0.270
531.5	0.269
532.0	0.268
532.5	0.268
533.0	0.266
533.5	0.265
534.0	0.264
534.5	0.263
535.0	0.263
535.5	0.262
536.0	0.262
536.5	0.261
537.0	0.260
537.5	0.258
538.0	0.257
538.5	0.255
539.0	0.255
539.5	0.254
540.0	0.253
540.5	0.253
541.0	0.253
541.5	0.252
542.0	0.252
542.5	0.251
543.0	0.251
543.5	0.250
544.0	0.250
544.5	0.249
545.0	0.247
545.5	0.246
546.0	0.244
546.5	0.243
547.0	0.242
547.5	0.241
548.0	0.241
548.5	0.240
549.0	0.239
549.5	0.238
550.0	0.237
550.5	0.236
551.0	0.234
551.5	0.234
552.0	0.233
552.5	0.232
553.0	0.232
553.5	0.231
554.0	0.230
554.5	0.229
555.0	0.229
555.5	0.228
556.0	0.227
556.5	0.226
557.0	0.225
557.5	0.224
558.0	0.223
558.5	0.222
559.0	0.221
559.5	0.220
560.0	0.220
560.5	0.219
561.0	0.219
561.5	0.218
562.0	0.218
562.5	0.217
563.0	0.216
563.5	0.216
564.0	0.215
564.5	0.214
565.0	0.213
565.5	0.213
566.0	0.212
566.5	0.211
567.0	0.211
567.5	0.211
568.0	0.210
568.5	0.210
569.0	0.209
569.5	0.209
570.0	0.209
570.5	0.209
571.0	0.208
571.5	0.207
572.0	0.206
572.5	0.205
573.0	0.204
573.5	0.203
574.0	0.203
574.5	0.203
575.0	0.202
575.5	0.202
576.0	0.202
576.5	0.201
577.0	0.201
577.5	0.200
578.0	0.200
578.5	0.199
579.0	0.198
579.5	0.197
580.0	0.197
580.5	0.197
581.0	0.196
581.5	0.195
582.0	0.195
582.5	0.195
583.0	0.195
583.5	0.194
584.0	0.194
584.5	0.194
585.0	0.194
585.5	0.193
586.0	0.192
586.5	0.191
587.0	0.191
587.5	0.190
588.0	0.189
588.5	0.189
589.0	0.188
589.5	0.188
590.0	0.188
590.5	0.187
591.0	0.187
591.5	0.187
592.0	0.187
592.5	0.187
593.0	0.187
593.5	0.187
594.0	0.186
594.5	0.186
595.0	0.185
595.5	0.184
596.0	0.185
596.5	0.185
597.0	0.184
597.5	0.184
598.0	0.184
598.5	0.184
599.0	0.183
599.5	0.183
600.0	0.182
600.5	0.182
601.0	0.182
601.5	0.182
602.0	0.181
602.5	0.181
603.0	0.180
603.5	0.180
604.0	0.179
604.5	0.178
605.0	0.178
605.5	0.178
606.0	0.178
606.5	0.179
607.0	0.180
607.5	0.180
608.0	0.179
608.5	0.179
609.0	0.178
609.5	0.177
610.0	0.176
610.5	0.176
611.0	0.176
611.5	0.176
612.0	0.176
612.5	0.176
613.0	0.176
613.5	0.175
614.0	0.174
614.5	0.174
615.0	0.174
615.5	0.173
616.0	0.173
616.5	0.173
617.0	0.173
617.5	0.172
618.0	0.172
618.5	0.171
619.0	0.171
619.5	0.171
620.0	0.171
620.5	0.171
621.0	0.170
621.5	0.170
622.0	0.169
622.5	0.169
623.0	0.169
623.5	0.169
624.0	0.169
624.5	0.169
625.0	0.169
625.5	0.168
626.0	0.167
626.5	0.167
627.0	0.167
627.5	0.167
628.0	0.168
628.5	0.168
629.0	0.167
629.5	0.167
630.0	0.166
630.5	0.165
631.0	0.164
631.5	0.164
632.0	0.164
632.5	0.164
633.0	0.164
633.5	0.164
634.0	0.163
634.5	0.163
635.0	0.163
635.5	0.163
636.0	0.163
636.5	0.163
637.0	0.162
637.5	0.162
638.0	0.162
638.5	0.162
639.0	0.161
639.5	0.161
640.0	0.161
640.5	0.161
641.0	0.161
641.5	0.161
642.0	0.160
642.5	0.159
643.0	0.159
643.5	0.158
644.0	0.158
644.5	0.158
645.0	0.158
645.5	0.158
646.0	0.158
646.5	0.159
647.0	0.159
647.5	0.158
648.0	0.158
648.5	0.157
649.0	0.157
649.5	0.157
650.0	0.158
650.5	0.157
651.0	0.157
651.5	0.156
652.0	0.156
652.5	0.155
653.0	0.154
653.5	0.153
654.0	0.153
654.5	0.154
655.0	0.155
655.5	0.155
656.0	0.155
656.5	0.155
657.0	0.155
657.5	0.155
658.0	0.155
658.5	0.154
659.0	0.154
659.5	0.155
660.0	0.155
660.5	0.154
661.0	0.154
661.5	0.155
662.0	0.155
662.5	0.154
663.0	0.154
663.5	0.153
664.0	0.153
664.5	0.153
665.0	0.153
665.5	0.153
666.0	0.152
666.5	0.151
667.0	0.151
667.5	0.150
668.0	0.149
668.5	0.150
669.0	0.150
669.5	0.150
670.0	0.150
670.5	0.151
671.0	0.151
671.5	0.150
672.0	0.150
672.5	0.149
673.0	0.149
673.5	0.149
674.0	0.149
674.5	0.149
675.0	0.149
675.5	0.150
676.0	0.150
676.5	0.150
677.0	0.150
677.5	0.150
678.0	0.149
678.5	0.149
679.0	0.148
679.5	0.148
680.0	0.148
680.5	0.148
681.0	0.147
681.5	0.148
682.0	0.148
682.5	0.148
683.0	0.147
683.5	0.147
684.0	0.147
684.5	0.147
685.0	0.147
685.5	0.146
686.0	0.146
686.5	0.146
687.0	0.147
687.5	0.146
688.0	0.146
688.5	0.146
689.0	0.145
689.5	0.145
690.0	0.145
690.5	0.144
691.0	0.143
691.5	0.143
692.0	0.143
692.5	0.143
693.0	0.143
693.5	0.143
694.0	0.143
694.5	0.143
695.0	0.143
695.5	0.143
696.0	0.144
696.5	0.144
697.0	0.144
697.5	0.144
698.0	0.144
698.5	0.143
699.0	0.143
699.5	0.142
700.0	0.142
700.5	0.142
701.0	0.143
701.5	0.143
702.0	0.142
702.5	0.141
703.0	0.140
703.5	0.139
704.0	0.139
704.5	0.138
705.0	0.138
705.5	0.139
706.0	0.140
706.5	0.141
707.0	0.141
707.5	0.141
708.0	0.141
708.5	0.140
709.0	0.139
709.5	0.138
710.0	0.138
710.5	0.138
711.0	0.138
711.5	0.139
712.0	0.139
712.5	0.139
713.0	0.140
713.5	0.139
714.0	0.138
714.5	0.137
715.0	0.137
715.5	0.137
716.0	0.137
716.5	0.137
717.0	0.137
717.5	0.137
718.0	0.137
718.5	0.137
719.0	0.137
719.5	0.136
720.0	0.136
720.5	0.135
721.0	0.135
721.5	0.134
722.0	0.134
722.5	0.135
723.0	0.135
723.5	0.135
724.0	0.136
724.5	0.136
725.0	0.135
725.5	0.135
726.0	0.134
726.5	0.133
727.0	0.134
727.5	0.134
728.0	0.135
728.5	0.135
729.0	0.135
729.5	0.135
730.0	0.135
730.5	0.134
731.0	0.134
731.5	0.133
732.0	0.133
732.5	0.133
733.0	0.133
733.5	0.133
734.0	0.133
734.5	0.134
735.0	0.134
735.5	0.135
736.0	0.135
736.5	0.135
737.0	0.134
737.5	0.135
738.0	0.135
738.5	0.135
739.0	0.135
739.5	0.135
740.0	0.134
740.5	0.133
741.0	0.132
741.5	0.131
742.0	0.131
742.5	0.130
743.0	0.130
743.5	0.131
744.0	0.132
744.5	0.132
745.0	0.131
745.5	0.131
746.0	0.131
746.5	0.130
747.0	0.130
747.5	0.129
748.0	0.129
748.5	0.129
749.0	0.129
749.5	0.129
750.0	0.128
750.5	0.128
751.0	0.128
751.5	0.128
752.0	0.128
752.5	0.128
753.0	0.129
753.5	0.129
754.0	0.129
754.5	0.130
755.0	0.130
755.5	0.131
756.0	0.130
756.5	0.130
757.0	0.130
757.5	0.129
758.0	0.129
758.5	0.129
759.0	0.129
759.5	0.129
760.0	0.130
760.5	0.130
761.0	0.130
761.5	0.130
762.0	0.128
762.5	0.127
763.0	0.127
763.5	0.126
764.0	0.126
764.5	0.127
765.0	0.127
765.5	0.128
766.0	0.127
766.5	0.127
767.0	0.126
767.5	0.126
768.0	0.125
768.5	0.125
769.0	0.125
769.5	0.126
770.0	0.125
770.5	0.124
771.0	0.123
771.5	0.123
772.0	0.123
772.5	0.123
773.0	0.123
773.5	0.123
774.0	0.124
774.5	0.126
775.0	0.127
775.5	0.127
776.0	0.127
776.5	0.125
777.0	0.124
777.5	0.123
778.0	0.122
778.5	0.121
779.0	0.121
779.5	0.122
780.0	0.122
780.5	0.122
781.0	0.122
781.5	0.122
782.0	0.122
782.5	0.123
783.0	0.123
783.5	0.123
784.0	0.122
784.5	0.122
785.0	0.122
785.5	0.121
786.0	0.121
786.5	0.121
787.0	0.121
787.5	0.120
788.0	0.120
788.5	0.120
789.0	0.120
789.5	0.121
790.0	0.121
790.5	0.120
791.0	0.120
791.5	0.119
792.0	0.118
792.5	0.118
793.0	0.118
793.5	0.118
794.0	0.120
794.5	0.121
795.0	0.122
795.5	0.123
796.0	0.122
796.5	0.121
797.0	0.121
797.5	0.121
798.0	0.121
798.5	0.120
799.0	0.121
799.5	0.123
800.0	0.124
800.5	0.124
801.0	0.122
801.5	0.121
802.0	0.121
802.5	0.120
803.0	0.119
803.5	0.118
804.0	0.118
804.5	0.119
805.0	0.120
805.5	0.120
806.0	0.120
806.5	0.120
807.0	0.120
807.5	0.119
808.0	0.118
808.5	0.117
809.0	0.116
809.5	0.117
810.0	0.119
810.5	0.121
811.0	0.121
811.5	0.120
812.0	0.119
812.5	0.118
813.0	0.118
813.5	0.118
814.0	0.118
814.5	0.119
815.0	0.121
815.5	0.122
816.0	0.121
816.5	0.119
817.0	0.117
817.5	0.115
818.0	0.114
818.5	0.114
819.0	0.114
819.5	0.116
820.0	0.118
820.5	0.118
821.0	0.118
821.5	0.118
822.0	0.117
822.5	0.116
823.0	0.116
823.5	0.117
824.0	0.118
824.5	0.119
825.0	0.120
825.5	0.120
826.0	0.121
826.5	0.121
827.0	0.119
827.5	0.118
828.0	0.118
828.5	0.118
829.0	0.119
829.5	0.120
830.0	0.121
830.5	0.122
831.0	0.121
831.5	0.119
832.0	0.117
832.5	0.115
833.0	0.114
833.5	0.113
834.0	0.114
834.5	0.114
835.0	0.114
835.5	0.115
836.0	0.116
836.5	0.116
837.0	0.117
837.5	0.118
838.0	0.118
838.5	0.118
839.0	0.117
839.5	0.116
840.0	0.114
840.5	0.114
841.0	0.114
841.5	0.114
842.0	0.114
842.5	0.114
843.0	0.114
843.5	0.114
844.0	0.114
844.5	0.115
845.0	0.115
845.5	0.116
846.0	0.117
846.5	0.117
847.0	0.116
847.5	0.117
848.0	0.116
848.5	0.114
849.0	0.114
849.5	0.113
850.0	0.113

